Photon Energy (eV)	#1	#2	#3	#4	#5	#6	#7	#8	#9	#10	#11	#12	#13	#14	#15	#16	#17	#18	#19	#20	#21	#22	#23	#24	#25	#26	#27	#28	#29	#30	#31	#32	#33	#34	#35	#36	#37	#38	#39	#40	#41	#42	#43	#44	#45	#46	#47	#48	#49	#50	#51	#52	#53	#54	#55	#56	#57	#58	#59	#60	#61	#62	#63	#64	#65	#66	#67	#68	#69	#70	#71	#72	#73	#74	#75	#76	#77	#78	#79	#80	#81	#82	#83	#84	#85	#86	#87	#88	#89	#90	#91	#92	#93	#94	#95	#96	#97	#98	#99	#100	#101	#102	#103	#104	#105	#106	#107	#108	#109	#110	#111	#112	#113	#114	#115	#116	#117	#118	#119	#120	#121	#122	#123	#124	#125	#126	#127	#128	#129	#130	#131	#132	#133	#134	#135	#136	#137	#138	#139	#140	#141	#142	#143	#144	#145	#146	#147	#148	#149	#150	#151	#152	#153	#154	#155	#156	#157	#158	#159	#160	#161	#162	#163	#164	#165	#166	#167	#168	#169	#170	#171	
5.300270E+2	-1.347770E-2	-8.511525E-3	4.897480E-3	-1.509101E-2	-3.284150E-3	-7.858673E-3	-6.287939E-3	4.767997E-3	-1.276744E-2	-6.374500E-3	-7.424924E-3	-4.687293E-3	-8.437556E-3	-1.885974E-3	-9.155440E-3	-1.427441E-2	-1.569031E-2	8.817434E-4	-7.438833E-3	-1.653618E-2	-8.607901E-3	-7.576734E-3	-1.432633E-2	-8.656842E-3	-9.862748E-3	-6.728908E-4	-6.611655E-3	-1.397421E-2	-1.266394E-2	-1.127044E-2	-1.488946E-2	6.045463E-3	-7.733904E-3	-9.525496E-4	-1.139174E-2	-4.945384E-3	-1.956971E-2	-4.754470E-3	-5.355471E-3	-1.692936E-2	-1.035155E-2	-7.799827E-3	-5.101841E-3	-1.087627E-2	-2.134675E-4	-1.146596E-2	-1.032329E-2	-5.915023E-3	-1.321805E-2	-1.772793E-3	-6.516257E-3	-1.297880E-2	-6.124599E-3	-1.217310E-2	-9.598085E-3	-1.373183E-2	-7.431563E-3	-6.004078E-3	-1.625578E-2	-8.906512E-3	-6.524586E-3	-1.769460E-2	-4.615742E-4	-1.610541E-3	-9.529239E-3	-7.213304E-3	-2.486621E-3	-5.591866E-3	-6.068445E-3	-1.668031E-2	-3.115020E-3	-6.190693E-3	-1.246503E-3	-5.802965E-3	-6.476007E-3	-4.870529E-3	-7.371735E-3	-1.103194E-2	-1.155398E-2	-1.195781E-2	-9.748226E-3	-7.403889E-3	-1.074290E-2	-6.197460E-3	-7.469522E-3	-9.272018E-3	-2.173704E-3	-5.116994E-3	-6.646027E-3	-6.352202E-4	-7.518624E-3	-1.464916E-2	-7.046704E-3	-9.383801E-3	-1.088306E-2	-9.334134E-3	-2.069585E-2	-1.127980E-2	-8.365753E-3	-2.118674E-2	-1.022797E-2	-1.438704E-2	-1.326556E-2	-1.035094E-2	-6.103483E-3	-6.705728E-3	-7.550785E-4	1.777440E-3	-2.694118E-3	-9.249830E-3	-7.939216E-3	-6.422306E-3	-6.403861E-3	-4.632324E-3	-1.123113E-2	-5.558616E-3	-1.274730E-3	-3.450857E-3	-6.910651E-4	-1.303143E-2	-9.362644E-3	-5.373613E-3	-5.127320E-3	-2.631896E-3	-1.431803E-2	-3.734408E-3	-6.655502E-3	-7.181562E-3	-5.531260E-3	-1.067599E-2	-7.955562E-3	-1.274002E-2	-8.402821E-3	-4.669145E-3	-7.840774E-3	1.883223E-3	-1.060241E-2	-5.735883E-3	-2.058845E-3	-7.843698E-3	-9.994353E-3	-1.321956E-2	-1.671701E-2	-1.379133E-3	-4.106118E-3	-1.137992E-2	-5.332992E-3	-5.782912E-3	-7.640352E-3	-1.201986E-2	-5.679741E-3	-1.063750E-2	-3.735634E-3	-5.066982E-3	-1.350489E-2	-4.560986E-3	-1.419512E-2	-4.598893E-3	-8.462742E-3	-6.591773E-3	-1.662439E-2	-2.249835E-3	-1.259788E-2	-1.927663E-2	-1.992754E-2	-1.406968E-2	-8.322483E-3	8.341657E-4	-1.081066E-2	-1.113826E-2	3.848489E-4
5.305230E+2	-6.916495E-3	-2.989864E-3	-3.898856E-3	-2.826643E-3	-7.950624E-3	-7.851765E-3	-2.475501E-3	-6.054331E-3	4.900172E-3	-3.715974E-3	-8.013145E-3	-9.735091E-3	-9.447865E-3	-1.076785E-2	8.224199E-4	-4.884632E-3	-1.200718E-2	-9.121619E-3	-1.676371E-2	-1.056682E-3	-1.559410E-3	-1.355245E-2	-1.133426E-2	-5.403791E-3	-2.021974E-3	-5.829054E-4	-8.923852E-3	4.419246E-4	2.932893E-3	-8.293418E-3	-7.169976E-3	-1.229704E-2	6.936714E-3	-1.227937E-2	-8.518159E-3	1.091237E-3	7.283554E-4	-5.288439E-3	-1.377972E-2	1.092332E-3	-8.185904E-3	-1.213451E-2	-3.640147E-3	-2.022971E-3	-7.323297E-4	-9.047873E-4	-1.147288E-2	-7.130081E-3	1.940951E-3	-6.748564E-3	-1.048427E-2	-3.492401E-3	-1.327750E-2	-6.055487E-3	-8.267097E-3	-3.564271E-3	-6.639745E-3	-7.856740E-3	6.842769E-3	-4.302333E-3	-4.649471E-3	-1.090659E-2	-1.796718E-2	-3.365608E-3	-1.075990E-2	-5.335337E-3	-1.706724E-3	-8.190464E-3	-1.046111E-2	-9.378470E-3	-1.197163E-2	-9.004618E-3	-9.443613E-3	-7.062986E-3	-3.720226E-3	-7.365423E-3	-1.149218E-2	-4.530309E-3	-7.035612E-3	4.180253E-3	-2.981202E-3	-7.306492E-3	-6.721253E-3	-9.009322E-3	-2.038889E-3	-9.193102E-3	-2.071384E-3	-3.041449E-3	-8.517553E-3	-4.211231E-3	-1.543353E-3	-1.178519E-2	-6.786009E-4	-4.064781E-3	1.548207E-3	-5.081498E-3	-9.662948E-3	1.306110E-3	-3.097667E-3	-1.062580E-2	-5.482740E-3	-6.150441E-3	-7.372264E-3	-7.551002E-3	-3.259826E-3	-4.801277E-3	3.190756E-3	-1.163871E-3	-1.691350E-2	-8.562173E-3	-4.099289E-5	-4.297101E-3	-8.231059E-3	-7.111692E-3	-4.948771E-3	-1.158868E-2	-1.060357E-2	-1.266172E-2	-1.704724E-2	-7.849441E-3	-2.092692E-3	-5.272421E-3	-1.041051E-2	-1.274462E-2	-5.395425E-3	-1.115227E-2	-9.233584E-3	-1.161021E-2	5.707134E-3	-9.322806E-4	-1.240441E-2	-6.686435E-3	5.894260E-3	-5.928513E-3	4.568554E-4	-1.096362E-2	-3.083460E-3	-3.541683E-3	-8.144860E-3	-9.082728E-3	-4.845054E-3	-8.191710E-3	-6.446052E-3	-8.339018E-3	-9.261567E-4	-9.708131E-4	-5.983633E-3	-6.416871E-3	-1.547269E-3	-4.775507E-3	-5.603373E-3	-1.187210E-2	-1.197051E-2	-5.061991E-3	-6.465763E-3	2.297967E-3	-1.412121E-2	-9.174844E-3	1.049189E-3	-1.362606E-2	-6.164276E-3	-9.482992E-3	-4.670952E-3	-2.686740E-3	-1.226745E-2	-8.575009E-3	-1.307547E-2	-1.441117E-2	-4.875062E-3	1.925839E-3	-3.765511E-3
5.310050E+2	-4.682108E-3	-3.689217E-3	7.697333E-3	1.832403E-3	-3.951953E-3	-5.839111E-3	-7.017088E-3	-1.441016E-2	-1.338149E-2	-5.604252E-3	-9.922224E-3	-6.527428E-3	-1.322160E-2	-5.956263E-3	-2.462575E-3	-2.134600E-3	-5.915569E-3	-1.269962E-2	-4.904544E-3	9.696673E-4	-1.295913E-2	-8.088324E-3	-3.566267E-3	-9.890936E-3	-9.080258E-3	-9.205414E-3	-1.015431E-2	-3.840806E-3	-1.195382E-2	-2.460791E-3	-8.823401E-3	-8.498250E-3	-1.653282E-2	-4.691013E-3	-7.699636E-3	-1.123533E-2	-2.837355E-3	-1.413813E-2	6.258548E-3	-1.474355E-2	-4.572172E-3	-1.140239E-2	-4.766624E-3	-2.023005E-2	-1.875963E-3	-5.420381E-3	-5.022625E-3	1.388877E-3	-8.663737E-3	-2.708110E-4	-1.369536E-2	-1.019050E-2	-1.682157E-2	-1.125459E-2	-8.049462E-5	-4.712033E-3	-5.235219E-3	-5.013873E-3	-6.395000E-3	-1.506450E-3	3.086962E-3	5.813784E-3	-8.083410E-3	-4.461618E-3	-6.050968E-3	-7.616507E-3	-5.671318E-3	2.024373E-3	-3.141401E-3	-1.651228E-2	-5.464747E-3	-8.318094E-3	-9.988217E-3	-7.591891E-3	-9.513060E-3	-1.992401E-3	-6.579742E-3	4.576399E-3	-1.222397E-3	-3.753714E-3	-9.588242E-3	-7.849574E-3	-2.023258E-3	-3.841731E-3	-8.630653E-3	-1.233283E-3	-1.728957E-2	-9.559429E-4	-1.497300E-2	-1.221950E-2	-2.749870E-3	8.564296E-3	-8.119281E-3	-3.960902E-3	-6.098944E-3	-4.298368E-3	-8.195957E-3	-6.944111E-3	-1.042733E-2	-8.294492E-3	-1.942639E-3	-4.806754E-3	-8.114835E-4	7.444532E-4	-9.402817E-3	-7.133236E-3	-8.284489E-3	-8.676086E-3	-3.706474E-3	-1.447813E-2	-1.168785E-2	-2.851646E-3	-5.600347E-3	-9.605272E-3	-7.230341E-4	-8.794241E-3	-1.592407E-2	-9.266765E-3	-1.165482E-3	-6.313237E-3	5.852382E-3	1.394080E-4	-3.604335E-3	-1.336198E-2	-4.675419E-3	-1.396798E-2	-6.504714E-3	-3.172002E-3	1.197882E-3	-7.499090E-3	-5.541109E-3	-6.157910E-4	-1.012787E-2	-2.513107E-3	-8.370456E-3	-8.428955E-3	-1.045966E-2	-8.404862E-3	-8.081517E-3	-3.128275E-3	-1.240726E-2	7.407293E-3	-1.593270E-2	-1.929090E-3	-6.420382E-3	-9.295913E-3	-7.365135E-3	-1.418442E-2	-1.286730E-2	7.713793E-3	-1.009864E-2	-7.245264E-3	-8.133372E-3	-2.335746E-3	-5.006407E-3	-7.813001E-3	-6.576669E-3	-9.688888E-3	-3.219463E-4	-1.357478E-2	-8.047584E-3	-5.440809E-3	-2.648616E-3	-1.020774E-2	-4.599676E-3	1.081368E-3	-1.440609E-2	-1.306456E-2	-3.974656E-3	-2.095454E-2	-9.587747E-3
5.315080E+2	3.388837E-3	-6.284575E-3	-1.735074E-2	-1.913581E-3	-3.790911E-3	2.764564E-3	-6.062138E-3	-1.298633E-2	-6.279250E-3	-1.005845E-2	-4.536519E-3	-6.302701E-4	1.682396E-3	-6.472361E-3	-6.807918E-4	-9.398556E-3	-5.171870E-3	3.539490E-3	-7.086725E-3	-1.037085E-2	-6.489626E-3	4.557292E-4	4.752522E-3	-4.613772E-3	-1.101215E-2	-7.857682E-3	-1.455203E-3	-1.234148E-3	-4.679192E-3	4.734399E-3	-1.609163E-3	-3.286998E-3	3.997048E-3	-2.577857E-3	-5.845263E-4	-5.991887E-3	6.479410E-3	1.335350E-3	-8.226897E-3	-6.212161E-5	-1.032052E-3	8.880406E-4	-5.344238E-3	-4.771227E-3	-2.422733E-3	-3.628303E-3	-4.941432E-3	-6.964684E-3	1.497380E-3	-4.016387E-3	8.081561E-4	-1.401576E-3	3.867081E-3	3.493352E-3	-4.306023E-3	-6.540574E-3	-1.029730E-2	-1.029114E-2	2.030387E-3	1.085995E-3	-8.564140E-3	-7.056329E-3	-9.310908E-3	-4.388788E-3	4.598323E-3	-7.543701E-3	-6.258264E-3	-6.675582E-3	-3.201879E-3	3.489968E-3	-4.730708E-3	-2.963598E-3	-4.146764E-3	-8.224082E-3	5.398761E-4	-5.905001E-3	3.770138E-3	-4.995138E-3	-1.133712E-2	-7.028186E-3	2.563091E-3	6.430769E-3	-6.183566E-4	2.784643E-3	-1.995929E-2	-4.408559E-4	-4.440657E-3	-1.220688E-2	-1.812288E-3	-3.287538E-3	-3.318442E-3	-2.531447E-3	-1.055868E-2	-9.120388E-3	-7.573183E-3	-2.128076E-3	-5.443952E-4	-6.864033E-3	-1.435695E-3	-5.967198E-3	-5.319646E-3	-9.775178E-3	-1.043487E-2	-3.224187E-3	-3.095112E-3	-9.788928E-4	-1.271657E-2	-9.363595E-3	1.767448E-3	1.247220E-3	-8.338470E-3	6.855755E-3	-1.033239E-3	-1.133995E-3	-6.157932E-3	-5.219414E-4	-9.968088E-4	-1.844883E-3	-5.024399E-3	-7.691659E-3	-2.027365E-2	-1.150932E-3	-4.174807E-3	-2.372359E-3	3.045297E-3	1.205360E-3	2.513062E-4	-1.137191E-3	-7.921151E-3	-4.978809E-3	-6.202941E-3	2.161903E-3	-5.080047E-3	9.389200E-4	-6.895530E-3	-7.099754E-3	-1.161169E-2	-6.896909E-3	-8.678182E-3	-3.691826E-3	1.696673E-3	-9.277034E-3	-2.196615E-3	-1.834822E-3	-4.459342E-3	-1.244189E-4	-9.450513E-3	-2.684163E-3	-4.062069E-3	-6.574665E-3	-1.520007E-3	6.896403E-4	-5.014440E-3	-9.536271E-3	-1.423074E-3	-9.768325E-3	-1.701376E-3	-1.077059E-2	5.073102E-4	-5.713511E-3	-2.738674E-3	5.298947E-3	-5.811282E-4	-4.588397E-3	2.495688E-3	-5.852460E-3	-1.134388E-3	1.156107E-3	-8.070995E-3	-6.140591E-5	3.809722E-3
5.320120E+2	6.416871E-3	-4.148042E-3	-5.623034E-3	4.372459E-3	-5.689864E-3	-4.981824E-3	3.136038E-3	3.857880E-3	7.166620E-3	-4.766265E-3	-3.800293E-3	-5.692751E-3	-2.085960E-3	2.061594E-3	-3.541041E-3	-3.938710E-3	-1.339370E-3	-4.700039E-3	7.887043E-3	-6.165418E-3	1.877075E-3	-6.380389E-4	-3.404700E-3	-8.424301E-3	-1.742184E-3	-2.136229E-3	-2.564319E-3	-2.334358E-3	-5.776228E-3	-6.277274E-3	-8.646568E-3	-5.689341E-3	-4.839052E-3	-5.017377E-3	-6.135018E-3	-3.298781E-3	3.502584E-3	1.316695E-4	-2.187697E-3	-6.488468E-4	-2.352548E-3	3.562530E-3	-1.303090E-3	7.065578E-3	-1.235371E-2	-6.177163E-4	2.660723E-3	1.533355E-3	-7.266016E-3	-3.294487E-3	-1.818525E-3	8.145316E-3	9.250243E-4	2.085575E-4	5.161234E-3	4.311307E-3	1.358730E-3	3.606422E-3	2.121892E-3	-1.439305E-3	-1.026442E-2	-2.705605E-3	3.264787E-3	2.611328E-3	4.033368E-3	-1.225515E-2	-8.861213E-3	7.618969E-3	-1.818079E-3	-3.905225E-5	-2.019775E-3	1.240490E-3	4.290774E-3	-4.100575E-4	6.919016E-4	5.922553E-3	3.869591E-3	-6.206682E-3	2.351968E-4	3.145478E-3	2.656323E-3	-3.803905E-3	-4.447154E-3	2.874652E-3	6.291314E-3	-1.258124E-2	-8.170679E-3	5.366186E-4	9.429199E-3	2.714747E-3	2.056921E-3	2.462472E-3	4.671655E-3	-2.606571E-3	-4.392404E-3	-2.045123E-3	-4.479615E-4	1.607421E-3	4.615457E-3	9.950917E-3	7.864982E-4	5.467781E-3	-3.855657E-3	4.396370E-3	-2.318130E-3	9.396724E-4	1.124216E-2	2.144758E-3	3.666676E-3	-2.258081E-3	2.224582E-3	-4.056809E-3	2.267804E-3	6.721779E-3	3.636216E-3	2.616808E-4	-1.576984E-3	2.258041E-3	1.095017E-2	4.154257E-3	8.099301E-4	-1.731548E-3	-4.076050E-3	3.870696E-3	-6.375574E-3	1.314803E-3	-1.033453E-2	1.541871E-3	-1.245960E-2	-9.140521E-3	8.300352E-3	-3.750673E-3	-1.262137E-3	3.053905E-3	7.682757E-4	-1.953934E-4	-3.414186E-3	2.737790E-4	-1.705495E-3	-9.730195E-4	4.350852E-3	5.767691E-3	7.474489E-3	-1.039029E-3	6.847527E-3	1.282408E-3	6.153167E-5	-1.877725E-3	-6.111162E-4	-7.147231E-3	5.365286E-4	2.754888E-3	1.905854E-3	-6.786884E-3	2.163919E-3	-3.561198E-3	-9.176896E-4	1.659785E-3	-1.317738E-2	5.417253E-3	1.107222E-2	2.076530E-3	1.736440E-4	2.426096E-3	6.424289E-3	-6.231852E-4	-2.426365E-3	1.271209E-3	-4.138979E-4	-1.751744E-2	2.446692E-3
5.325120E+2	8.685912E-3	2.793865E-3	8.830528E-3	6.024881E-4	3.167489E-3	1.348550E-2	4.743863E-3	1.105941E-2	-3.537274E-3	-1.319522E-4	1.239375E-2	4.787888E-3	1.012185E-2	4.561893E-3	2.964997E-3	7.050663E-3	1.107450E-2	5.581853E-3	7.254209E-3	1.304799E-2	2.623335E-3	1.584787E-2	8.173564E-3	1.973969E-2	1.111786E-2	2.993515E-3	1.283731E-2	9.108647E-3	7.563235E-3	1.431879E-3	1.288562E-2	5.908580E-3	1.008681E-3	9.789650E-3	8.052467E-3	-5.755306E-4	6.084727E-3	8.653942E-3	1.226438E-3	1.282767E-2	8.967287E-3	1.207030E-2	4.083645E-3	1.086430E-2	7.166691E-3	1.830440E-3	9.651505E-3	-3.264118E-4	1.049784E-3	5.101132E-3	9.967432E-3	3.841860E-3	1.869339E-2	1.447312E-2	1.515037E-3	1.077589E-2	1.050043E-2	6.390923E-3	-2.927168E-3	9.744361E-3	4.542861E-3	9.073227E-3	7.981343E-3	2.083495E-3	1.635047E-4	1.300834E-2	7.638471E-3	9.765194E-3	1.580709E-2	1.220538E-2	1.294292E-2	8.420190E-3	8.271334E-3	8.144315E-3	4.145170E-3	1.505604E-4	7.018433E-3	6.823316E-3	9.305987E-3	-3.489939E-3	2.084814E-3	4.065737E-3	7.578366E-3	-1.398874E-3	2.364958E-3	6.212165E-3	1.571711E-2	7.992715E-3	3.383337E-4	-8.820137E-4	-5.074679E-3	-2.373295E-4	7.951679E-3	1.273697E-2	8.190063E-3	-3.355524E-3	7.253681E-3	5.313477E-3	3.314256E-3	1.837529E-2	1.560249E-3	7.472161E-3	1.714275E-2	4.499104E-3	1.029120E-2	5.920366E-3	1.663619E-3	3.762710E-3	6.776651E-3	1.174053E-2	1.479840E-2	2.230647E-3	3.657329E-3	3.639722E-4	5.134454E-3	1.200676E-2	1.750097E-2	1.025734E-3	2.450479E-3	9.409574E-3	2.227352E-3	4.155638E-4	6.176727E-3	8.764846E-3	7.097319E-3	1.429319E-3	1.449900E-2	2.934135E-3	5.471973E-3	7.394716E-3	9.176367E-3	5.052403E-3	1.944231E-3	-1.560005E-3	5.010533E-3	6.739860E-3	1.294137E-2	1.082806E-3	9.435619E-3	1.749750E-3	6.376805E-3	4.631234E-3	8.263500E-3	8.979891E-3	-1.773503E-3	7.896651E-3	5.969167E-3	7.520117E-3	1.364019E-2	8.709820E-3	8.497714E-3	6.169206E-3	-2.841705E-4	5.312104E-3	2.261173E-3	5.452703E-3	1.081273E-2	1.766421E-3	1.418330E-3	1.858666E-2	2.022936E-3	1.502570E-3	8.788919E-3	1.293337E-2	1.035915E-2	6.549020E-3	8.809936E-3	1.169342E-2	1.485357E-2	1.884109E-2	-4.122165E-4
5.330230E+2	6.584679E-3	2.282936E-2	5.447289E-3	1.302388E-2	2.150001E-2	1.028131E-2	1.396276E-2	1.376554E-2	2.389865E-2	3.065139E-2	2.130336E-2	2.248494E-2	2.138874E-2	1.845896E-2	1.205243E-2	2.758024E-2	2.904980E-2	1.651819E-2	2.105256E-2	2.011148E-2	2.511566E-2	1.355195E-2	1.970547E-2	1.724995E-2	2.260146E-2	1.746161E-2	1.687203E-2	1.183295E-2	2.457706E-2	2.213565E-2	2.825295E-2	1.781759E-2	1.716333E-2	1.572852E-2	2.627661E-2	2.495568E-2	5.611987E-3	1.406007E-2	2.206480E-2	1.846389E-2	1.752694E-2	1.481586E-2	1.607230E-2	1.997065E-2	1.043151E-2	2.020671E-2	1.944799E-2	1.741397E-2	2.465968E-2	1.100191E-2	2.173882E-2	1.607610E-2	1.273818E-2	1.130815E-2	1.557543E-2	1.346151E-2	1.774467E-2	1.916849E-2	1.458290E-2	5.324244E-3	2.237279E-2	2.347612E-2	2.457694E-2	9.131732E-3	1.754492E-2	2.695566E-2	1.734567E-2	1.049375E-3	8.883822E-3	2.691477E-2	1.435896E-2	1.681632E-2	1.226299E-2	2.094767E-2	1.433234E-2	1.406024E-2	1.078549E-2	1.536435E-2	2.160793E-2	1.890391E-2	1.501344E-2	1.586735E-2	1.697455E-2	1.478809E-2	2.944208E-2	2.650834E-2	1.842888E-2	1.279194E-2	2.218133E-2	1.852076E-2	1.814805E-2	1.817635E-2	1.377993E-2	1.639947E-2	1.920932E-2	2.624272E-2	3.229343E-2	1.686093E-2	1.539673E-2	1.774803E-2	2.062624E-2	2.217947E-2	1.859709E-2	1.148620E-2	1.388817E-2	1.275909E-2	5.659607E-3	1.151865E-2	1.110331E-2	2.156046E-2	1.098355E-2	8.541461E-3	1.534337E-2	1.539753E-2	1.429020E-2	1.419504E-2	1.287519E-2	2.394045E-2	1.052754E-2	2.132193E-2	2.283933E-2	1.297354E-2	2.121630E-2	1.847531E-2	2.062183E-2	2.490517E-2	1.797802E-2	1.862495E-2	1.353502E-2	2.583198E-2	1.462731E-2	1.657861E-2	1.703438E-2	1.067794E-2	1.687110E-2	1.806464E-2	2.623004E-2	2.322275E-2	1.923328E-2	2.296980E-2	1.482234E-2	1.288208E-2	2.555438E-2	5.541201E-3	1.083797E-2	1.259200E-2	2.210157E-2	2.342597E-2	1.308792E-2	1.409365E-2	1.386752E-2	2.014114E-2	2.723228E-2	2.347577E-2	2.197504E-2	1.795284E-2	2.669934E-2	3.080701E-2	1.898724E-2	1.550222E-2	2.047977E-2	8.295589E-3	1.153601E-2	2.140004E-2	1.751554E-2	2.148995E-2	3.055486E-2	1.252083E-2	1.329169E-2	2.890472E-2	7.124211E-3
5.331580E+2	2.937214E-2	3.809077E-2	1.713053E-2	1.775261E-2	2.009821E-2	1.959246E-2	2.158649E-2	2.165337E-2	3.149140E-2	1.181059E-2	1.949859E-2	3.688668E-2	2.860844E-2	2.042054E-2	1.908483E-2	2.566494E-2	2.904118E-2	2.080979E-2	2.994673E-2	1.736845E-2	2.716703E-2	2.159121E-2	2.043277E-2	1.353819E-2	1.134462E-2	1.566965E-2	3.047332E-2	2.137658E-2	3.138480E-2	3.293974E-2	1.911220E-2	1.205829E-2	1.793804E-2	2.092942E-2	2.325311E-2	2.183395E-2	2.496343E-2	1.889232E-2	2.412220E-2	2.063329E-2	1.562424E-2	1.884453E-2	1.895237E-2	3.146792E-2	2.759312E-2	2.817241E-2	2.609051E-2	2.496955E-2	2.420028E-2	2.341660E-2	2.360902E-2	1.515941E-2	2.022242E-2	3.601236E-2	3.600151E-2	2.383120E-2	2.046976E-2	2.201966E-2	1.272101E-2	1.806628E-2	3.023956E-2	2.126640E-2	2.319357E-2	1.960691E-2	2.705133E-2	2.416972E-2	2.665473E-2	2.120496E-2	1.878083E-2	7.631979E-3	2.342426E-2	2.115151E-2	2.467308E-2	1.830152E-2	2.547676E-2	3.006450E-2	3.895173E-2	2.395449E-2	1.831968E-2	2.250524E-2	3.138553E-2	1.667106E-2	2.548548E-2	2.011189E-2	1.743237E-2	1.653973E-2	1.067926E-2	3.374751E-2	3.223036E-2	2.312582E-2	2.357438E-2	1.479369E-2	3.107126E-2	1.890045E-2	2.479971E-2	3.554286E-2	2.482968E-2	2.724107E-2	1.626647E-2	2.850029E-2	2.350909E-2	2.994738E-2	2.331967E-2	2.402183E-2	3.216988E-2	2.512890E-2	2.590732E-2	1.776967E-2	2.087904E-2	1.503544E-2	1.702986E-2	2.456818E-2	2.320059E-2	2.137524E-2	1.441547E-2	2.326358E-2	2.864430E-2	1.803679E-2	2.995472E-2	2.219640E-2	1.243295E-2	3.024832E-2	2.407890E-2	3.509608E-2	1.820491E-2	2.798892E-2	2.347292E-2	4.087469E-2	2.560207E-2	4.312331E-2	3.610821E-2	2.949079E-2	3.405889E-2	3.512681E-2	2.393056E-2	3.316816E-2	1.256723E-2	1.979564E-2	3.460660E-2	3.434059E-2	3.357522E-2	2.680929E-2	2.500368E-2	2.486290E-2	1.472219E-2	2.514805E-2	2.807578E-2	3.075755E-2	2.809236E-2	2.213726E-2	3.307446E-2	3.083142E-2	1.362542E-2	2.027233E-2	1.930022E-2	2.288579E-2	2.821892E-2	3.038497E-2	3.369809E-2	1.889755E-2	1.339416E-2	2.114289E-2	2.284669E-2	1.666722E-2	1.700797E-2	1.323145E-2	3.420158E-2	2.884425E-2	2.525533E-2	2.354270E-2	1.287241E-3
5.333080E+2	2.436619E-2	4.581133E-2	4.401710E-2	2.096593E-2	3.380842E-2	3.555216E-2	2.707521E-2	3.345957E-2	4.055761E-2	4.011125E-2	2.645965E-2	4.159456E-2	4.543328E-2	2.778915E-2	2.668697E-2	3.531383E-2	1.807260E-2	3.963097E-2	2.847148E-2	2.708024E-2	3.306772E-2	2.415465E-2	3.352606E-2	3.208928E-2	5.065809E-2	2.335994E-2	3.064264E-2	3.358001E-2	1.637750E-2	3.551512E-2	3.523683E-2	2.509596E-2	2.962889E-2	3.523148E-2	2.847941E-2	3.195312E-2	3.753829E-2	2.815105E-2	3.560653E-2	4.101070E-2	2.205877E-2	3.651978E-2	2.937760E-2	2.640487E-2	3.151592E-2	2.890025E-2	3.296552E-2	3.232951E-2	3.963842E-2	2.610961E-2	3.609443E-2	2.230168E-2	3.997220E-2	3.273051E-2	3.866920E-2	2.460905E-2	3.619422E-2	3.149045E-2	2.582992E-2	3.002372E-2	4.699023E-2	3.753552E-2	2.893918E-2	3.507720E-2	1.985660E-2	2.855265E-2	3.044986E-2	3.579212E-2	1.826346E-2	4.195207E-2	4.365060E-2	3.612849E-2	3.064451E-2	3.190070E-2	2.252110E-2	4.083669E-2	4.281104E-2	4.105254E-2	3.181625E-2	2.560837E-2	3.360114E-2	2.923023E-2	2.108196E-2	2.930004E-2	3.179907E-2	4.059505E-2	4.306990E-2	2.583637E-2	2.179672E-2	3.519731E-2	3.170055E-2	1.506623E-2	3.763325E-2	3.796306E-2	3.806723E-2	2.543247E-2	2.084819E-2	2.986443E-2	2.695244E-2	3.668410E-2	2.020266E-2	3.270098E-2	3.780722E-2	3.187007E-2	3.372766E-2	4.002381E-2	2.962563E-2	2.801291E-2	3.676807E-2	2.006608E-2	4.362619E-2	3.113586E-2	3.436154E-2	2.415963E-2	2.613188E-2	5.322459E-2	3.290554E-2	4.176720E-2	2.893002E-2	3.570919E-2	3.445447E-2	4.095185E-2	4.123354E-2	3.114754E-2	2.862127E-2	3.579565E-2	3.169796E-2	2.867587E-2	2.842449E-2	2.860439E-2	3.551379E-2	2.898633E-2	3.736533E-2	4.883193E-2	3.379722E-2	2.460368E-2	3.095480E-2	3.778436E-2	2.575785E-2	3.187283E-2	3.632564E-2	4.458003E-2	3.481218E-2	3.073419E-2	4.627303E-2	3.448327E-2	3.920132E-2	1.796890E-2	3.639017E-2	4.543273E-2	3.654962E-2	2.770827E-2	3.976011E-2	4.056238E-2	2.578045E-2	4.505789E-2	3.320573E-2	3.294086E-2	2.510317E-2	3.478715E-2	3.920021E-2	2.600453E-2	4.675208E-2	3.287030E-2	1.331054E-2	3.021015E-2	3.859314E-2	2.644281E-2	5.086073E-2	2.371363E-2	2.379933E-2
5.334580E+2	3.443670E-2	4.197429E-2	4.693812E-2	4.597025E-2	4.286498E-2	3.107796E-2	5.215974E-2	5.046486E-2	4.451449E-2	2.840857E-2	4.883777E-2	3.713795E-2	4.331507E-2	5.090484E-2	3.429620E-2	2.790354E-2	3.550188E-2	4.451544E-2	3.898222E-2	5.246116E-2	3.318689E-2	4.260743E-2	4.067201E-2	4.284981E-2	4.572631E-2	4.800344E-2	5.139832E-2	2.672916E-2	3.954376E-2	4.746856E-2	3.430576E-2	3.676249E-2	3.488480E-2	4.233311E-2	4.137366E-2	4.017078E-2	4.706077E-2	2.964070E-2	3.016806E-2	5.213023E-2	3.718675E-2	3.930833E-2	3.201103E-2	4.220435E-2	4.876726E-2	3.804706E-2	2.758448E-2	4.907150E-2	4.876315E-2	4.509515E-2	4.124499E-2	3.590608E-2	3.586492E-2	4.657627E-2	5.633887E-2	4.398714E-2	4.233747E-2	4.905001E-2	4.873084E-2	4.935182E-2	3.710162E-2	5.388699E-2	4.718844E-2	4.743942E-2	2.940790E-2	3.114237E-2	4.048709E-2	5.244998E-2	3.425103E-2	3.175388E-2	4.448526E-2	4.463663E-2	4.119745E-2	3.000671E-2	3.098316E-2	2.980453E-2	3.691306E-2	4.123827E-2	4.437891E-2	5.510610E-2	3.444215E-2	4.312411E-2	3.786258E-2	3.610027E-2	5.231448E-2	2.921665E-2	4.392070E-2	4.554971E-2	4.382509E-2	5.104895E-2	3.389608E-2	3.722199E-2	3.080071E-2	3.874600E-2	6.015234E-2	2.490357E-2	2.726804E-2	4.458251E-2	3.139312E-2	4.150671E-2	4.147346E-2	4.373837E-2	4.019363E-2	4.104939E-2	3.809508E-2	4.021516E-2	3.613279E-2	4.611514E-2	4.727259E-2	4.279390E-2	5.255037E-2	3.716551E-2	4.557236E-2	4.199649E-2	3.446522E-2	4.400590E-2	4.948628E-2	4.537012E-2	3.483003E-2	5.001286E-2	2.998422E-2	4.250267E-2	4.263607E-2	5.648807E-2	3.396998E-2	4.779977E-2	4.681475E-2	5.024347E-2	3.930197E-2	3.560048E-2	3.969843E-2	3.763729E-2	5.014027E-2	3.414984E-2	2.850710E-2	5.428649E-2	3.931886E-2	3.725881E-2	5.126910E-2	4.341494E-2	4.038211E-2	4.423378E-2	5.791432E-2	5.534288E-2	4.145439E-2	5.044327E-2	3.679059E-2	2.686655E-2	3.724299E-2	4.762008E-2	3.605030E-2	4.777706E-2	4.606981E-2	2.798457E-2	4.142034E-2	3.147132E-2	5.545698E-2	4.263296E-2	2.890788E-2	4.810595E-2	4.663197E-2	2.951529E-2	3.768627E-2	4.213141E-2	4.366172E-2	3.749939E-2	4.648914E-2	4.354092E-2	5.700954E-2	5.158098E-2	3.593025E-2
5.336130E+2	4.701803E-2	7.826747E-2	6.504180E-2	4.460264E-2	5.958749E-2	6.236617E-2	6.384339E-2	5.775061E-2	4.149530E-2	4.499156E-2	6.631306E-2	5.945449E-2	5.854645E-2	6.440660E-2	6.916205E-2	4.573497E-2	4.309594E-2	5.612991E-2	5.525118E-2	6.360252E-2	5.389606E-2	5.501371E-2	5.265173E-2	6.336069E-2	7.091938E-2	4.942088E-2	5.513633E-2	4.406331E-2	5.918294E-2	4.816989E-2	5.274966E-2	4.273080E-2	5.568370E-2	5.412622E-2	5.178800E-2	6.980532E-2	6.223056E-2	5.082104E-2	6.321051E-2	5.297171E-2	5.007545E-2	5.840601E-2	5.101291E-2	4.835345E-2	5.466163E-2	5.897816E-2	6.423004E-2	5.780603E-2	6.431446E-2	4.913089E-2	5.630494E-2	4.696310E-2	7.666114E-2	7.683450E-2	5.031012E-2	6.471642E-2	4.637318E-2	5.125091E-2	5.973210E-2	5.017719E-2	6.526085E-2	5.783093E-2	5.674874E-2	5.212303E-2	5.972147E-2	5.982405E-2	5.426722E-2	4.645557E-2	6.004189E-2	6.505238E-2	5.936334E-2	6.508835E-2	5.309335E-2	5.928585E-2	5.734775E-2	4.122824E-2	4.567938E-2	5.515457E-2	5.107647E-2	5.120291E-2	6.115575E-2	6.493444E-2	5.471162E-2	4.884466E-2	7.019513E-2	4.027943E-2	5.378297E-2	5.992589E-2	5.000493E-2	5.798110E-2	6.439134E-2	4.663703E-2	6.805929E-2	5.139035E-2	4.427089E-2	5.989807E-2	4.696702E-2	8.061655E-2	5.965722E-2	5.856217E-2	6.813838E-2	5.929060E-2	5.631174E-2	5.927383E-2	5.301925E-2	6.258183E-2	6.307166E-2	8.500210E-2	5.780302E-2	7.354565E-2	6.457154E-2	6.955647E-2	6.719282E-2	5.659975E-2	6.392102E-2	4.905911E-2	5.174546E-2	7.871358E-2	4.949365E-2	5.541792E-2	5.744018E-2	6.190830E-2	6.057840E-2	4.285394E-2	5.927859E-2	5.568799E-2	6.159818E-2	5.312539E-2	5.152056E-2	6.414183E-2	6.083799E-2	5.893677E-2	5.790668E-2	6.630238E-2	6.173945E-2	6.016401E-2	7.236974E-2	4.890451E-2	7.548516E-2	7.470717E-2	5.549833E-2	4.959536E-2	6.185162E-2	7.126477E-2	5.243098E-2	5.800362E-2	5.051872E-2	6.015024E-2	5.789587E-2	7.115107E-2	6.451738E-2	5.142932E-2	5.548283E-2	7.672842E-2	5.653496E-2	7.464958E-2	4.327327E-2	6.313104E-2	6.524379E-2	4.925172E-2	6.209430E-2	5.806788E-2	5.110676E-2	6.157121E-2	4.002463E-2	5.789691E-2	6.821640E-2	5.953695E-2	6.662741E-2	6.518166E-2	5.457377E-2
5.337740E+2	8.263851E-2	7.650340E-2	6.393043E-2	1.019655E-1	7.604975E-2	8.055615E-2	9.530893E-2	8.016197E-2	6.542614E-2	7.620370E-2	7.168364E-2	7.674048E-2	7.830147E-2	7.260385E-2	8.184311E-2	6.439255E-2	7.998355E-2	7.688257E-2	8.925188E-2	8.113048E-2	7.089459E-2	1.000630E-1	8.549253E-2	6.448831E-2	8.319266E-2	7.497128E-2	8.923283E-2	8.132078E-2	8.385511E-2	6.990294E-2	7.414177E-2	7.799930E-2	9.012944E-2	7.444324E-2	8.984101E-2	8.355924E-2	7.005126E-2	7.545277E-2	7.880389E-2	7.719899E-2	8.965087E-2	8.879614E-2	7.020238E-2	8.378657E-2	7.274889E-2	8.384698E-2	8.665522E-2	8.330374E-2	8.965064E-2	6.967608E-2	7.151880E-2	9.543355E-2	7.578728E-2	8.812895E-2	7.750460E-2	6.826039E-2	8.345947E-2	9.046295E-2	8.350092E-2	7.306055E-2	5.725178E-2	8.187262E-2	7.758153E-2	7.359613E-2	9.297471E-2	9.420769E-2	6.510800E-2	7.225255E-2	7.422800E-2	6.908682E-2	7.246801E-2	9.171027E-2	7.099456E-2	7.829109E-2	8.842248E-2	7.202532E-2	8.227263E-2	8.757117E-2	6.500811E-2	8.437750E-2	8.055852E-2	8.036600E-2	6.863310E-2	7.060934E-2	7.052295E-2	6.747889E-2	8.697391E-2	8.055865E-2	9.021843E-2	8.601923E-2	7.042720E-2	7.971173E-2	1.049599E-1	7.905246E-2	6.979827E-2	7.443888E-2	7.243912E-2	8.221202E-2	8.076653E-2	7.883257E-2	9.576501E-2	7.564314E-2	7.897979E-2	7.766373E-2	7.653499E-2	8.391175E-2	9.023488E-2	6.748777E-2	7.395475E-2	7.392296E-2	6.611595E-2	6.775483E-2	7.207719E-2	9.039779E-2	5.468789E-2	7.441531E-2	8.428693E-2	6.821668E-2	7.817048E-2	9.299550E-2	7.041727E-2	7.351793E-2	1.009489E-1	7.788168E-2	9.060090E-2	8.084078E-2	7.815595E-2	7.849080E-2	6.519884E-2	8.364341E-2	8.241391E-2	6.400751E-2	9.736384E-2	7.139092E-2	5.933192E-2	8.378570E-2	8.222772E-2	1.001594E-1	8.466450E-2	8.508490E-2	1.031526E-1	8.160084E-2	8.336549E-2	8.892804E-2	6.982164E-2	7.284452E-2	7.605146E-2	9.544539E-2	9.437771E-2	7.815112E-2	7.316032E-2	8.436122E-2	8.730141E-2	7.505148E-2	8.283636E-2	9.800972E-2	8.444806E-2	8.081646E-2	8.771126E-2	8.022921E-2	6.773393E-2	9.359621E-2	7.662708E-2	7.550259E-2	6.550487E-2	9.280610E-2	8.134199E-2	8.875700E-2	8.573680E-2	8.892997E-2	7.994735E-2
5.339090E+2	7.750912E-2	1.222737E-1	1.050815E-1	1.219516E-1	1.190872E-1	1.115360E-1	9.907354E-2	1.083327E-1	1.139393E-1	1.247859E-1	1.080222E-1	1.164989E-1	1.218250E-1	1.057632E-1	1.074354E-1	9.290956E-2	1.283154E-1	1.133194E-1	1.120686E-1	1.270203E-1	1.178958E-1	8.999826E-2	9.771990E-2	1.014247E-1	1.319461E-1	1.031671E-1	1.038671E-1	1.168293E-1	1.141459E-1	1.156089E-1	1.346015E-1	9.519792E-2	1.043578E-1	1.078856E-1	1.146085E-1	1.209254E-1	1.199218E-1	1.180278E-1	1.140103E-1	9.299254E-2	1.141344E-1	1.330790E-1	9.982952E-2	1.306248E-1	1.182984E-1	1.236789E-1	8.526068E-2	1.088258E-1	1.073759E-1	1.154185E-1	1.185579E-1	1.041988E-1	1.126072E-1	1.001643E-1	1.129079E-1	1.169550E-1	9.805737E-2	1.258120E-1	1.103914E-1	1.098817E-1	1.072276E-1	1.310770E-1	1.184750E-1	1.028042E-1	9.799332E-2	1.220331E-1	1.225446E-1	1.106037E-1	1.082190E-1	1.076457E-1	1.061541E-1	1.202326E-1	1.092339E-1	1.164994E-1	1.222198E-1	1.009760E-1	1.158774E-1	1.122552E-1	1.253691E-1	1.073925E-1	1.315321E-1	1.149587E-1	1.111512E-1	1.073402E-1	8.927697E-2	1.123132E-1	1.177431E-1	1.393354E-1	1.132606E-1	1.059137E-1	1.006111E-1	1.057808E-1	1.221007E-1	1.068473E-1	1.158530E-1	8.762415E-2	1.218613E-1	1.253354E-1	1.026474E-1	1.176993E-1	1.139456E-1	1.339153E-1	1.113644E-1	1.052065E-1	9.946634E-2	1.028757E-1	1.114222E-1	1.121213E-1	1.231894E-1	1.203658E-1	1.227958E-1	1.110049E-1	1.200573E-1	1.276508E-1	1.081109E-1	1.320283E-1	1.252513E-1	1.059518E-1	1.003782E-1	1.203018E-1	1.162551E-1	1.225427E-1	1.064907E-1	1.165861E-1	1.078475E-1	1.180001E-1	1.183020E-1	1.158986E-1	1.246526E-1	1.305147E-1	1.027366E-1	1.101208E-1	1.357791E-1	1.189182E-1	8.967246E-2	1.081738E-1	1.092978E-1	1.221706E-1	1.103034E-1	1.096480E-1	1.055204E-1	1.207852E-1	1.177455E-1	1.211817E-1	1.158761E-1	1.301433E-1	1.276938E-1	1.126534E-1	1.214697E-1	1.279494E-1	1.062725E-1	9.943055E-2	1.246900E-1	9.642386E-2	1.358070E-1	1.081456E-1	1.147148E-1	1.081679E-1	1.291759E-1	1.125177E-1	1.185918E-1	1.340394E-1	1.182578E-1	1.140663E-1	1.066701E-1	1.213343E-1	1.142526E-1	9.639490E-2	1.032355E-1	1.217355E-1	1.306661E-1
5.340590E+2	1.535126E-1	1.862295E-1	1.900989E-1	1.748682E-1	1.829142E-1	1.865627E-1	1.587146E-1	1.750114E-1	1.731963E-1	1.608875E-1	1.851836E-1	1.708263E-1	1.807291E-1	1.675052E-1	1.518469E-1	1.591929E-1	1.775266E-1	1.842726E-1	1.845379E-1	1.758840E-1	1.850785E-1	1.624933E-1	1.659296E-1	1.643650E-1	1.972014E-1	1.728725E-1	1.699602E-1	1.615281E-1	1.910617E-1	1.524116E-1	1.645648E-1	1.719217E-1	1.781274E-1	1.877334E-1	1.985303E-1	1.771697E-1	1.711353E-1	1.709706E-1	1.646183E-1	1.804781E-1	1.690750E-1	1.688768E-1	1.814434E-1	1.850386E-1	1.766885E-1	1.921359E-1	1.755342E-1	1.732216E-1	1.792300E-1	1.837756E-1	1.897522E-1	1.470426E-1	1.885099E-1	1.912313E-1	1.654823E-1	1.644228E-1	1.716719E-1	1.591093E-1	1.874045E-1	1.673992E-1	1.734658E-1	1.777930E-1	1.711872E-1	1.739462E-1	1.772481E-1	1.822460E-1	1.707669E-1	1.940481E-1	1.677232E-1	1.752728E-1	1.700499E-1	1.757435E-1	1.881188E-1	1.910749E-1	1.991528E-1	1.719360E-1	1.835149E-1	1.724887E-1	1.948324E-1	1.689436E-1	1.832659E-1	1.785845E-1	1.885411E-1	1.768818E-1	1.750896E-1	1.550045E-1	1.770214E-1	1.784903E-1	1.690826E-1	1.958108E-1	1.868239E-1	1.562024E-1	1.920142E-1	1.782877E-1	1.979336E-1	1.673594E-1	1.636671E-1	1.764864E-1	1.622457E-1	1.921199E-1	1.646437E-1	1.761984E-1	1.758495E-1	1.886797E-1	1.683687E-1	1.689950E-1	2.116403E-1	1.864515E-1	1.884519E-1	2.026170E-1	1.903262E-1	2.044048E-1	1.727059E-1	1.642975E-1	1.873164E-1	1.792770E-1	1.897396E-1	1.941690E-1	1.716862E-1	1.678215E-1	1.930305E-1	1.816112E-1	1.649497E-1	1.811963E-1	1.607375E-1	1.522375E-1	1.887146E-1	1.752440E-1	1.997485E-1	1.638265E-1	1.843409E-1	1.624968E-1	1.748719E-1	1.754573E-1	1.781632E-1	1.534641E-1	1.860571E-1	1.874491E-1	1.909992E-1	1.625015E-1	1.827644E-1	1.785210E-1	1.844157E-1	2.006630E-1	1.779332E-1	1.829423E-1	1.957191E-1	1.796406E-1	1.938486E-1	2.032986E-1	1.677584E-1	1.727241E-1	1.675224E-1	1.802658E-1	1.747096E-1	1.684386E-1	1.652080E-1	1.733897E-1	1.952821E-1	1.695077E-1	1.769012E-1	1.860882E-1	1.727366E-1	1.859975E-1	1.680354E-1	1.819960E-1	1.750585E-1	1.743756E-1	1.799107E-1	1.847923E-1	1.380942E-1
5.342090E+2	3.015102E-1	2.629598E-1	3.049527E-1	3.113379E-1	3.280104E-1	2.919524E-1	3.019008E-1	2.946664E-1	3.116852E-1	2.998979E-1	2.975359E-1	3.161971E-1	2.873083E-1	2.816403E-1	2.740148E-1	2.770982E-1	3.055483E-1	3.030929E-1	3.068787E-1	3.405189E-1	2.888759E-1	2.902185E-1	2.878258E-1	2.809762E-1	3.015176E-1	2.787293E-1	2.766606E-1	2.952242E-1	2.946723E-1	3.140585E-1	2.946612E-1	2.740732E-1	2.938327E-1	2.861686E-1	2.808256E-1	3.073426E-1	3.314548E-1	3.106932E-1	3.019985E-1	2.865952E-1	3.028384E-1	3.344290E-1	2.829930E-1	2.976085E-1	3.133296E-1	3.018720E-1	3.000283E-1	3.062779E-1	3.101442E-1	3.117153E-1	2.892379E-1	3.280160E-1	2.889007E-1	2.595212E-1	3.004669E-1	2.716330E-1	2.921682E-1	2.999164E-1	2.747044E-1	2.863936E-1	3.108717E-1	3.289026E-1	2.984297E-1	2.783125E-1	2.980206E-1	2.922828E-1	2.858738E-1	2.923593E-1	2.850491E-1	2.914376E-1	2.870245E-1	2.957987E-1	3.198087E-1	3.032095E-1	3.157598E-1	2.966550E-1	3.108569E-1	3.035549E-1	2.830596E-1	2.913980E-1	3.203703E-1	2.748422E-1	2.892690E-1	3.235066E-1	3.078647E-1	2.602292E-1	2.833069E-1	3.064768E-1	2.834285E-1	3.109404E-1	3.212084E-1	2.986371E-1	3.074181E-1	3.278561E-1	2.909126E-1	2.997647E-1	2.999832E-1	3.094270E-1	3.044498E-1	2.791782E-1	2.910359E-1	3.091236E-1	2.907438E-1	3.298996E-1	2.914131E-1	2.988472E-1	3.147211E-1	3.438141E-1	2.907939E-1	2.802703E-1	3.004010E-1	3.002806E-1	3.087832E-1	3.075164E-1	2.893269E-1	3.389016E-1	3.131812E-1	2.895551E-1	3.190447E-1	3.123745E-1	2.781717E-1	2.770282E-1	2.965967E-1	2.859657E-1	3.152980E-1	3.283958E-1	2.884563E-1	2.780003E-1	3.034785E-1	2.993563E-1	3.229049E-1	2.781912E-1	3.063501E-1	3.125753E-1	2.855061E-1	3.163218E-1	3.077948E-1	3.079175E-1	3.227542E-1	3.296465E-1	2.949512E-1	3.240250E-1	2.976973E-1	3.262892E-1	3.123043E-1	3.509854E-1	3.129036E-1	2.857829E-1	3.194280E-1	3.326151E-1	2.978753E-1	2.764993E-1	3.150513E-1	2.896188E-1	2.909306E-1	2.883746E-1	3.045248E-1	3.069317E-1	3.062173E-1	3.021897E-1	3.288935E-1	3.092371E-1	3.133614E-1	3.271448E-1	3.038654E-1	3.296057E-1	2.864661E-1	3.073985E-1	2.921262E-1	3.131882E-1	3.013687E-1
5.343600E+2	5.466014E-1	5.341601E-1	5.379020E-1	5.188780E-1	5.518366E-1	5.135693E-1	5.302491E-1	5.068575E-1	5.215956E-1	5.457539E-1	5.482118E-1	5.022137E-1	5.361857E-1	5.598630E-1	5.365468E-1	4.836848E-1	5.501933E-1	5.541333E-1	5.216064E-1	5.437057E-1	5.432585E-1	5.108649E-1	5.195624E-1	4.961488E-1	5.305268E-1	5.253448E-1	5.326783E-1	5.247456E-1	5.665669E-1	5.419815E-1	5.595468E-1	5.499424E-1	5.131036E-1	5.082767E-1	5.597602E-1	5.219694E-1	5.397492E-1	5.126864E-1	5.526856E-1	5.515563E-1	5.461422E-1	5.540109E-1	5.303935E-1	5.365512E-1	5.408721E-1	5.278374E-1	5.122609E-1	5.710710E-1	5.315782E-1	5.482273E-1	5.155936E-1	5.280993E-1	4.997878E-1	5.238705E-1	5.094914E-1	4.720089E-1	5.062682E-1	5.183103E-1	5.330128E-1	5.371018E-1	5.141332E-1	5.517906E-1	5.367478E-1	5.228332E-1	4.938157E-1	4.966838E-1	5.563723E-1	5.085880E-1	5.148253E-1	5.637808E-1	5.283508E-1	5.590811E-1	5.348876E-1	5.475984E-1	5.452598E-1	5.323968E-1	5.212463E-1	5.297021E-1	5.176572E-1	5.442235E-1	5.124027E-1	5.324048E-1	5.420871E-1	5.193007E-1	5.256890E-1	4.944684E-1	5.175670E-1	5.744364E-1	5.237668E-1	5.414022E-1	4.868517E-1	5.285942E-1	5.597847E-1	5.477230E-1	5.095251E-1	5.131874E-1	5.003325E-1	5.394357E-1	5.216492E-1	5.115233E-1	5.313432E-1	5.067310E-1	5.311322E-1	5.250140E-1	5.477808E-1	5.339996E-1	5.425948E-1	5.447905E-1	5.707152E-1	5.487025E-1	5.142415E-1	5.084112E-1	5.182978E-1	5.427452E-1	5.547226E-1	5.076119E-1	5.008110E-1	5.386063E-1	5.329893E-1	5.198964E-1	5.057273E-1	5.324440E-1	5.545329E-1	4.879808E-1	5.245876E-1	5.280054E-1	5.093038E-1	5.356692E-1	5.408158E-1	5.272017E-1	5.332636E-1	5.044060E-1	5.403600E-1	5.507322E-1	5.518795E-1	5.243704E-1	5.278889E-1	5.367516E-1	5.408547E-1	5.177500E-1	5.450760E-1	5.245680E-1	5.379709E-1	5.376844E-1	5.360542E-1	5.603762E-1	5.461941E-1	5.431041E-1	4.951053E-1	5.162671E-1	5.093555E-1	5.319835E-1	5.911561E-1	5.405855E-1	5.331248E-1	5.061142E-1	5.157453E-1	5.206899E-1	5.502691E-1	4.969577E-1	5.450676E-1	4.977364E-1	5.461875E-1	5.129668E-1	5.321948E-1	5.317841E-1	5.647478E-1	5.222841E-1	5.305538E-1	5.488989E-1	5.610585E-1
5.345110E+2	9.200882E-1	9.196827E-1	8.652339E-1	8.476077E-1	9.285189E-1	9.146778E-1	8.997235E-1	8.575116E-1	8.954310E-1	8.672186E-1	9.095924E-1	8.485110E-1	8.660121E-1	9.042555E-1	8.992966E-1	9.000267E-1	8.917529E-1	9.429045E-1	8.715758E-1	8.982369E-1	9.188799E-1	8.727530E-1	9.471441E-1	8.505963E-1	9.440738E-1	8.698224E-1	8.589380E-1	9.044672E-1	9.019260E-1	8.587192E-1	8.884874E-1	9.022057E-1	8.873998E-1	8.973723E-1	8.680878E-1	8.975700E-1	8.902858E-1	8.919954E-1	8.916497E-1	9.192088E-1	9.247731E-1	9.031535E-1	9.215713E-1	9.016230E-1	9.098142E-1	8.587905E-1	8.714021E-1	8.587377E-1	9.016231E-1	9.160706E-1	9.014003E-1	8.402631E-1	9.064917E-1	8.235530E-1	9.319039E-1	8.920975E-1	8.817491E-1	8.854951E-1	8.522459E-1	8.774529E-1	8.373708E-1	8.773648E-1	9.014662E-1	8.991184E-1	9.054745E-1	8.628353E-1	9.141829E-1	9.046074E-1	8.815904E-1	9.029167E-1	9.528110E-1	9.180975E-1	8.784937E-1	9.134400E-1	9.210601E-1	9.024307E-1	8.746990E-1	8.924322E-1	9.030100E-1	8.761238E-1	8.960267E-1	8.823960E-1	8.927902E-1	8.797193E-1	8.564320E-1	8.913807E-1	8.889064E-1	9.207619E-1	9.009833E-1	8.665134E-1	8.381081E-1	9.035096E-1	9.064058E-1	8.916896E-1	8.784862E-1	9.146002E-1	9.410341E-1	8.472953E-1	8.819675E-1	8.820435E-1	8.798759E-1	9.042566E-1	9.162831E-1	8.712772E-1	8.811620E-1	8.825171E-1	9.002226E-1	8.655471E-1	8.430782E-1	9.290848E-1	9.137250E-1	8.768530E-1	8.726660E-1	8.644588E-1	9.037378E-1	9.022368E-1	8.889064E-1	8.872557E-1	8.705479E-1	8.878607E-1	8.790906E-1	9.154578E-1	9.072685E-1	8.889506E-1	9.546703E-1	9.060641E-1	9.322220E-1	8.649857E-1	8.690590E-1	9.047514E-1	8.858349E-1	8.774748E-1	8.818676E-1	8.808042E-1	8.824694E-1	9.020583E-1	9.340339E-1	8.636814E-1	8.896643E-1	8.874163E-1	9.142307E-1	8.958816E-1	8.784051E-1	8.754741E-1	9.098487E-1	9.207866E-1	8.366586E-1	8.728374E-1	8.846852E-1	8.858092E-1	8.725699E-1	8.618406E-1	9.179664E-1	9.209360E-1	9.033819E-1	8.291716E-1	9.337535E-1	9.118444E-1	8.807011E-1	8.667417E-1	8.786726E-1	8.928821E-1	8.864316E-1	9.155798E-1	9.057996E-1	9.088353E-1	8.878354E-1	9.168129E-1	9.356118E-1	9.184331E-1	8.246510E-1
5.346560E+2	1.265891E+0	1.227983E+0	1.231175E+0	1.295527E+0	1.342405E+0	1.251322E+0	1.294006E+0	1.226244E+0	1.289062E+0	1.226755E+0	1.248988E+0	1.273790E+0	1.323467E+0	1.244371E+0	1.266520E+0	1.276896E+0	1.229796E+0	1.310679E+0	1.268862E+0	1.304800E+0	1.305938E+0	1.244420E+0	1.271877E+0	1.254563E+0	1.291862E+0	1.214432E+0	1.248575E+0	1.286214E+0	1.238466E+0	1.226555E+0	1.286537E+0	1.235626E+0	1.259343E+0	1.318998E+0	1.275665E+0	1.266464E+0	1.259574E+0	1.240039E+0	1.345457E+0	1.307287E+0	1.258667E+0	1.273003E+0	1.224076E+0	1.303007E+0	1.240434E+0	1.268203E+0	1.291863E+0	1.219766E+0	1.268805E+0	1.264259E+0	1.279406E+0	1.201793E+0	1.239224E+0	1.286436E+0	1.287495E+0	1.312045E+0	1.231018E+0	1.244566E+0	1.195832E+0	1.239670E+0	1.190386E+0	1.308513E+0	1.289252E+0	1.263389E+0	1.220897E+0	1.242272E+0	1.281778E+0	1.287531E+0	1.305441E+0	1.284123E+0	1.298803E+0	1.265452E+0	1.277155E+0	1.289782E+0	1.315555E+0	1.251223E+0	1.254652E+0	1.275985E+0	1.244438E+0	1.197543E+0	1.225307E+0	1.303681E+0	1.280061E+0	1.249024E+0	1.250596E+0	1.266255E+0	1.286095E+0	1.260949E+0	1.249392E+0	1.264226E+0	1.293571E+0	1.221340E+0	1.273370E+0	1.272709E+0	1.270115E+0	1.237490E+0	1.236945E+0	1.244163E+0	1.280519E+0	1.238111E+0	1.178955E+0	1.249431E+0	1.255888E+0	1.323799E+0	1.242887E+0	1.241887E+0	1.239592E+0	1.329423E+0	1.235761E+0	1.306047E+0	1.242996E+0	1.268604E+0	1.239598E+0	1.281204E+0	1.270331E+0	1.241888E+0	1.298492E+0	1.313433E+0	1.233389E+0	1.253259E+0	1.257900E+0	1.240763E+0	1.236265E+0	1.232107E+0	1.287615E+0	1.260466E+0	1.258743E+0	1.185470E+0	1.251558E+0	1.232372E+0	1.269557E+0	1.273944E+0	1.213180E+0	1.232037E+0	1.274208E+0	1.277950E+0	1.315953E+0	1.267910E+0	1.211019E+0	1.263721E+0	1.228862E+0	1.213291E+0	1.208430E+0	1.329174E+0	1.239502E+0	1.330625E+0	1.242279E+0	1.194742E+0	1.214031E+0	1.282956E+0	1.231193E+0	1.227245E+0	1.248048E+0	1.320354E+0	1.251712E+0	1.205232E+0	1.234442E+0	1.234148E+0	1.269879E+0	1.218926E+0	1.227459E+0	1.261883E+0	1.225407E+0	1.216485E+0	1.226934E+0	1.248186E+0	1.255004E+0	1.282176E+0	1.303887E+0	1.248516E+0	1.224824E+0
5.348070E+2	1.534354E+0	1.613938E+0	1.685070E+0	1.717026E+0	1.573994E+0	1.651342E+0	1.636640E+0	1.632383E+0	1.665663E+0	1.620702E+0	1.612842E+0	1.665612E+0	1.601365E+0	1.631390E+0	1.631588E+0	1.614866E+0	1.600750E+0	1.680402E+0	1.673339E+0	1.596892E+0	1.655368E+0	1.602707E+0	1.623116E+0	1.646174E+0	1.704621E+0	1.621685E+0	1.584167E+0	1.569364E+0	1.591662E+0	1.623290E+0	1.627047E+0	1.579223E+0	1.592524E+0	1.691471E+0	1.634603E+0	1.607640E+0	1.657937E+0	1.640363E+0	1.652176E+0	1.647699E+0	1.676193E+0	1.653328E+0	1.626673E+0	1.677510E+0	1.594742E+0	1.623171E+0	1.648867E+0	1.572526E+0	1.635691E+0	1.579642E+0	1.647703E+0	1.586167E+0	1.586415E+0	1.626705E+0	1.647880E+0	1.634575E+0	1.608342E+0	1.600194E+0	1.550895E+0	1.574178E+0	1.607745E+0	1.707526E+0	1.674329E+0	1.632533E+0	1.608667E+0	1.636275E+0	1.590294E+0	1.590210E+0	1.535993E+0	1.657231E+0	1.635466E+0	1.619873E+0	1.614633E+0	1.709198E+0	1.581972E+0	1.541768E+0	1.572835E+0	1.612289E+0	1.585789E+0	1.516482E+0	1.647653E+0	1.568174E+0	1.652412E+0	1.605069E+0	1.586496E+0	1.575065E+0	1.681872E+0	1.604180E+0	1.677780E+0	1.645565E+0	1.582693E+0	1.638425E+0	1.606717E+0	1.612969E+0	1.609103E+0	1.559168E+0	1.636685E+0	1.609762E+0	1.633426E+0	1.648894E+0	1.638369E+0	1.606946E+0	1.594050E+0	1.561253E+0	1.606774E+0	1.590610E+0	1.581486E+0	1.648660E+0	1.566539E+0	1.645419E+0	1.702848E+0	1.526632E+0	1.527426E+0	1.568424E+0	1.666917E+0	1.614043E+0	1.561467E+0	1.611944E+0	1.538195E+0	1.674612E+0	1.585104E+0	1.554157E+0	1.631910E+0	1.536580E+0	1.619419E+0	1.598520E+0	1.581970E+0	1.520679E+0	1.628053E+0	1.648847E+0	1.716929E+0	1.570404E+0	1.549029E+0	1.603433E+0	1.579993E+0	1.639535E+0	1.621111E+0	1.588694E+0	1.645288E+0	1.531598E+0	1.606764E+0	1.607053E+0	1.595914E+0	1.617591E+0	1.590552E+0	1.690758E+0	1.574048E+0	1.608915E+0	1.547433E+0	1.619806E+0	1.640026E+0	1.529202E+0	1.538904E+0	1.584220E+0	1.552982E+0	1.544813E+0	1.650489E+0	1.593889E+0	1.571557E+0	1.504646E+0	1.580461E+0	1.625693E+0	1.521134E+0	1.545175E+0	1.570496E+0	1.640091E+0	1.579266E+0	1.600625E+0	1.568115E+0	1.589119E+0	1.485161E+0
5.349630E+2	1.886432E+0	1.923063E+0	1.964400E+0	2.001083E+0	1.915228E+0	1.925431E+0	1.993813E+0	1.903282E+0	1.876737E+0	1.909667E+0	1.897170E+0	1.888245E+0	1.899695E+0	1.927925E+0	1.934206E+0	1.912566E+0	1.901065E+0	1.971816E+0	1.889513E+0	1.969560E+0	1.927606E+0	1.929553E+0	1.869959E+0	1.976545E+0	1.865903E+0	1.988612E+0	1.866722E+0	1.942032E+0	1.921901E+0	1.882399E+0	1.938511E+0	1.884700E+0	1.968035E+0	1.932440E+0	1.945832E+0	1.916271E+0	1.933069E+0	1.948130E+0	1.914426E+0	2.000845E+0	1.969728E+0	1.956706E+0	1.876921E+0	1.958633E+0	1.952604E+0	1.966379E+0	1.987351E+0	1.859906E+0	1.930087E+0	1.964002E+0	1.942910E+0	1.881613E+0	1.840116E+0	1.913092E+0	1.919303E+0	1.915400E+0	1.904386E+0	1.908704E+0	1.786668E+0	1.929051E+0	1.886507E+0	1.968890E+0	1.991546E+0	1.903577E+0	1.912995E+0	1.881488E+0	1.879939E+0	1.911833E+0	1.823686E+0	1.841318E+0	1.895842E+0	1.869337E+0	1.951291E+0	1.956136E+0	1.914938E+0	1.903330E+0	1.845925E+0	1.882585E+0	1.839411E+0	1.805879E+0	1.881212E+0	1.915833E+0	1.892794E+0	1.902197E+0	1.918803E+0	1.863482E+0	1.962945E+0	1.972706E+0	1.913275E+0	1.897484E+0	1.827975E+0	1.957236E+0	1.886580E+0	1.899646E+0	1.883592E+0	1.850094E+0	1.870284E+0	1.884406E+0	1.876545E+0	1.894111E+0	1.884843E+0	1.885420E+0	1.926139E+0	1.885844E+0	1.853957E+0	1.855334E+0	1.888797E+0	1.948698E+0	1.894831E+0	1.914288E+0	1.868837E+0	1.830144E+0	1.793482E+0	1.889770E+0	1.921843E+0	1.896686E+0	1.871812E+0	1.901185E+0	1.890934E+0	1.845032E+0	1.858887E+0	1.838225E+0	1.908632E+0	1.826528E+0	1.900534E+0	1.866791E+0	1.876151E+0	1.793754E+0	1.904980E+0	1.963426E+0	1.878376E+0	1.871222E+0	1.801842E+0	1.788280E+0	1.955118E+0	1.799303E+0	1.892579E+0	1.793672E+0	1.846597E+0	1.868920E+0	1.871015E+0	1.828507E+0	1.773492E+0	1.881142E+0	1.906532E+0	1.854084E+0	1.753394E+0	1.782089E+0	1.822082E+0	1.958958E+0	1.849567E+0	1.928238E+0	1.861794E+0	1.865164E+0	1.859137E+0	1.867740E+0	1.890840E+0	1.842603E+0	1.908468E+0	1.780300E+0	1.868499E+0	1.843773E+0	1.804317E+0	1.843289E+0	1.880894E+0	1.911079E+0	1.857414E+0	1.831333E+0	1.815585E+0	1.877000E+0	1.767672E+0
5.351090E+2	2.056587E+0	1.962671E+0	2.007886E+0	2.194505E+0	2.048342E+0	2.100461E+0	2.121247E+0	2.073085E+0	2.053286E+0	2.059875E+0	2.055588E+0	2.113568E+0	2.075720E+0	2.087619E+0	2.024817E+0	1.939623E+0	2.118046E+0	2.026871E+0	2.039991E+0	2.137436E+0	2.102502E+0	2.107226E+0	2.065866E+0	2.085620E+0	2.048737E+0	2.102719E+0	2.056932E+0	2.065429E+0	2.009525E+0	1.993944E+0	2.026099E+0	2.063189E+0	2.107365E+0	2.166676E+0	2.024588E+0	2.024748E+0	2.061147E+0	2.104126E+0	2.034463E+0	2.145267E+0	2.098654E+0	2.144562E+0	2.045429E+0	2.090884E+0	2.015670E+0	2.118494E+0	2.074601E+0	1.922517E+0	1.987400E+0	2.076773E+0	2.057224E+0	2.046865E+0	1.995638E+0	2.114151E+0	2.034834E+0	2.081294E+0	1.990045E+0	2.041648E+0	1.986474E+0	2.038639E+0	2.032880E+0	2.048746E+0	2.035300E+0	2.033760E+0	2.019984E+0	2.020157E+0	2.004331E+0	1.950549E+0	1.993221E+0	2.009675E+0	2.006254E+0	2.044613E+0	1.951845E+0	2.077713E+0	2.092873E+0	2.007388E+0	2.006228E+0	2.079280E+0	2.021198E+0	1.986805E+0	2.042269E+0	2.079166E+0	2.105354E+0	2.082643E+0	2.065618E+0	2.049955E+0	2.098839E+0	2.070099E+0	2.022902E+0	1.969822E+0	2.025989E+0	2.029338E+0	2.021437E+0	1.950004E+0	2.052004E+0	1.986079E+0	2.058140E+0	2.049478E+0	2.077348E+0	1.929295E+0	2.004569E+0	2.012571E+0	1.975003E+0	2.013900E+0	2.037663E+0	1.953004E+0	2.044214E+0	2.159135E+0	2.037218E+0	2.050594E+0	2.051601E+0	1.964280E+0	1.967618E+0	2.076143E+0	2.034427E+0	1.991282E+0	1.996906E+0	1.936373E+0	1.985411E+0	1.990443E+0	2.044666E+0	1.977008E+0	2.084800E+0	1.960975E+0	1.995586E+0	1.981639E+0	1.995760E+0	1.940869E+0	1.953709E+0	2.125143E+0	2.005458E+0	1.974487E+0	1.954482E+0	2.041098E+0	1.996684E+0	1.996662E+0	1.986629E+0	1.920510E+0	1.974097E+0	1.947384E+0	1.968594E+0	2.014847E+0	2.024732E+0	2.080181E+0	2.015520E+0	2.024402E+0	1.930753E+0	1.996688E+0	1.987343E+0	1.996189E+0	1.943227E+0	1.988981E+0	2.046655E+0	1.971027E+0	2.021018E+0	1.919318E+0	2.006936E+0	1.985828E+0	1.927154E+0	1.971422E+0	2.041845E+0	2.014489E+0	1.942459E+0	1.956584E+0	1.867464E+0	2.001495E+0	2.023540E+0	2.022303E+0	2.080953E+0	1.987262E+0	1.940101E+0
5.352600E+2	2.055167E+0	1.998981E+0	2.030841E+0	2.066979E+0	1.982758E+0	1.998724E+0	1.997485E+0	1.929660E+0	2.026489E+0	1.970233E+0	1.984631E+0	1.934016E+0	1.989910E+0	2.008408E+0	2.036854E+0	1.913555E+0	1.952301E+0	2.035055E+0	2.018581E+0	2.014210E+0	2.063128E+0	1.966734E+0	1.959568E+0	1.973889E+0	2.014948E+0	2.026600E+0	1.977862E+0	1.953164E+0	1.975255E+0	1.941105E+0	1.977933E+0	1.890057E+0	2.054670E+0	2.019999E+0	1.964522E+0	1.949762E+0	1.971139E+0	2.037078E+0	1.972269E+0	2.001152E+0	1.980916E+0	2.029743E+0	1.978381E+0	2.043355E+0	2.036806E+0	2.036899E+0	1.971995E+0	1.932456E+0	1.992543E+0	1.988850E+0	1.972960E+0	1.954827E+0	1.887179E+0	2.004987E+0	1.922269E+0	1.936595E+0	1.917073E+0	1.938906E+0	1.913674E+0	1.945711E+0	1.911468E+0	2.043773E+0	1.903345E+0	1.914753E+0	1.996832E+0	1.905105E+0	1.939577E+0	1.933878E+0	1.903063E+0	1.952753E+0	1.963349E+0	1.921552E+0	1.992029E+0	1.930291E+0	1.981505E+0	1.960483E+0	2.035664E+0	1.996319E+0	1.894617E+0	1.895370E+0	1.887348E+0	1.890778E+0	2.012519E+0	1.924755E+0	1.886471E+0	1.921814E+0	2.003166E+0	1.947187E+0	1.920408E+0	2.041456E+0	1.944909E+0	1.965057E+0	1.930759E+0	1.926006E+0	1.915546E+0	1.914131E+0	1.905792E+0	1.888672E+0	1.983031E+0	1.939307E+0	1.902985E+0	1.975186E+0	1.908332E+0	1.976441E+0	1.918333E+0	1.900133E+0	1.997006E+0	1.875546E+0	1.896520E+0	1.939624E+0	1.968659E+0	1.917700E+0	1.845028E+0	2.012516E+0	1.945463E+0	1.906975E+0	1.921605E+0	2.020049E+0	1.972599E+0	1.867999E+0	1.866452E+0	1.937244E+0	1.931349E+0	1.908072E+0	1.995356E+0	1.984346E+0	1.880653E+0	1.916913E+0	1.954127E+0	1.978316E+0	1.983882E+0	1.897376E+0	1.923087E+0	1.875902E+0	1.989839E+0	1.966126E+0	1.908876E+0	2.005493E+0	1.924117E+0	1.895375E+0	1.877564E+0	1.921323E+0	1.812845E+0	2.038962E+0	1.980315E+0	1.958531E+0	1.896423E+0	1.942501E+0	1.893390E+0	1.936848E+0	1.888922E+0	1.849388E+0	1.933739E+0	1.937711E+0	1.963886E+0	1.941111E+0	1.980150E+0	1.918709E+0	1.893737E+0	1.794515E+0	1.864838E+0	1.926548E+0	1.886258E+0	2.003246E+0	1.928477E+0	1.951801E+0	1.920834E+0	1.920990E+0	1.950966E+0	1.911671E+0	1.834630E+0
5.354060E+2	1.784647E+0	1.765641E+0	1.715476E+0	1.812072E+0	1.690543E+0	1.792397E+0	1.728638E+0	1.747982E+0	1.716732E+0	1.718542E+0	1.755631E+0	1.766495E+0	1.740147E+0	1.724777E+0	1.747264E+0	1.761801E+0	1.753191E+0	1.758268E+0	1.747160E+0	1.823767E+0	1.722087E+0	1.816309E+0	1.716218E+0	1.715067E+0	1.768780E+0	1.771392E+0	1.683342E+0	1.742338E+0	1.720895E+0	1.722812E+0	1.768425E+0	1.733705E+0	1.759735E+0	1.752567E+0	1.723667E+0	1.679663E+0	1.727150E+0	1.812134E+0	1.777159E+0	1.776728E+0	1.784295E+0	1.711796E+0	1.802529E+0	1.809548E+0	1.773783E+0	1.628261E+0	1.720614E+0	1.702301E+0	1.742258E+0	1.765683E+0	1.761102E+0	1.721516E+0	1.693159E+0	1.794100E+0	1.715575E+0	1.722271E+0	1.716757E+0	1.693891E+0	1.654309E+0	1.744925E+0	1.730424E+0	1.774713E+0	1.703034E+0	1.741616E+0	1.697730E+0	1.708741E+0	1.755604E+0	1.693235E+0	1.693041E+0	1.741340E+0	1.778233E+0	1.693464E+0	1.752070E+0	1.792010E+0	1.748112E+0	1.662335E+0	1.721105E+0	1.650593E+0	1.729339E+0	1.712269E+0	1.649496E+0	1.686612E+0	1.819281E+0	1.695160E+0	1.574455E+0	1.699042E+0	1.794010E+0	1.779688E+0	1.644675E+0	1.748469E+0	1.705790E+0	1.714430E+0	1.753849E+0	1.706960E+0	1.699213E+0	1.669469E+0	1.693473E+0	1.696582E+0	1.738763E+0	1.708680E+0	1.636388E+0	1.769117E+0	1.690401E+0	1.768704E+0	1.684660E+0	1.688705E+0	1.726955E+0	1.723663E+0	1.681124E+0	1.769006E+0	1.727326E+0	1.707764E+0	1.676388E+0	1.706588E+0	1.735846E+0	1.730510E+0	1.716613E+0	1.783885E+0	1.710205E+0	1.706723E+0	1.651901E+0	1.692402E+0	1.759584E+0	1.640662E+0	1.767723E+0	1.688979E+0	1.736932E+0	1.683707E+0	1.739174E+0	1.700310E+0	1.691080E+0	1.708097E+0	1.648512E+0	1.705241E+0	1.752300E+0	1.657337E+0	1.722940E+0	1.741035E+0	1.685659E+0	1.695466E+0	1.668854E+0	1.748447E+0	1.683223E+0	1.734734E+0	1.697323E+0	1.772979E+0	1.621339E+0	1.702524E+0	1.614359E+0	1.710528E+0	1.631193E+0	1.676579E+0	1.697787E+0	1.749719E+0	1.660972E+0	1.707271E+0	1.664955E+0	1.686305E+0	1.684466E+0	1.620195E+0	1.691646E+0	1.790440E+0	1.724293E+0	1.669095E+0	1.660003E+0	1.690916E+0	1.729866E+0	1.677391E+0	1.718164E+0	1.693336E+0	1.590436E+0
5.355630E+2	1.493780E+0	1.571819E+0	1.523642E+0	1.557676E+0	1.503195E+0	1.552958E+0	1.555982E+0	1.487987E+0	1.562645E+0	1.415086E+0	1.513074E+0	1.512758E+0	1.506807E+0	1.585335E+0	1.537490E+0	1.470980E+0	1.480157E+0	1.564682E+0	1.523041E+0	1.566333E+0	1.564316E+0	1.491815E+0	1.544248E+0	1.450566E+0	1.483742E+0	1.544119E+0	1.442963E+0	1.544775E+0	1.493051E+0	1.496334E+0	1.541682E+0	1.522310E+0	1.467662E+0	1.556727E+0	1.561449E+0	1.532283E+0	1.532950E+0	1.466977E+0	1.518558E+0	1.506140E+0	1.542757E+0	1.595114E+0	1.544762E+0	1.583267E+0	1.571205E+0	1.483756E+0	1.483861E+0	1.490780E+0	1.504200E+0	1.509440E+0	1.513540E+0	1.481122E+0	1.499419E+0	1.539672E+0	1.529151E+0	1.544511E+0	1.495502E+0	1.528533E+0	1.464673E+0	1.478927E+0	1.412185E+0	1.525534E+0	1.453721E+0	1.467071E+0	1.490243E+0	1.479852E+0	1.608355E+0	1.500318E+0	1.466801E+0	1.552455E+0	1.472567E+0	1.529318E+0	1.513102E+0	1.499333E+0	1.480157E+0	1.486595E+0	1.478837E+0	1.482131E+0	1.529803E+0	1.496824E+0	1.505337E+0	1.474408E+0	1.545974E+0	1.469250E+0	1.444181E+0	1.469025E+0	1.527232E+0	1.530416E+0	1.511450E+0	1.519837E+0	1.518287E+0	1.564347E+0	1.490460E+0	1.499057E+0	1.489967E+0	1.494707E+0	1.500403E+0	1.474455E+0	1.562925E+0	1.473142E+0	1.481199E+0	1.479759E+0	1.502006E+0	1.482999E+0	1.473014E+0	1.471948E+0	1.482416E+0	1.439710E+0	1.458851E+0	1.498731E+0	1.485940E+0	1.465376E+0	1.443313E+0	1.502478E+0	1.451793E+0	1.559963E+0	1.460287E+0	1.547112E+0	1.436947E+0	1.525219E+0	1.477377E+0	1.491986E+0	1.528040E+0	1.506508E+0	1.493388E+0	1.499157E+0	1.543276E+0	1.415514E+0	1.447478E+0	1.499127E+0	1.540196E+0	1.464595E+0	1.458704E+0	1.548852E+0	1.547387E+0	1.485704E+0	1.499440E+0	1.514475E+0	1.435029E+0	1.457429E+0	1.456703E+0	1.522561E+0	1.452941E+0	1.526203E+0	1.480373E+0	1.544198E+0	1.449041E+0	1.431176E+0	1.435925E+0	1.549672E+0	1.438260E+0	1.431667E+0	1.498899E+0	1.483557E+0	1.519954E+0	1.434224E+0	1.518106E+0	1.448358E+0	1.557573E+0	1.428608E+0	1.465499E+0	1.463623E+0	1.463600E+0	1.458434E+0	1.446575E+0	1.491950E+0	1.595794E+0	1.562877E+0	1.518805E+0	1.482377E+0	1.452507E+0
5.357140E+2	1.258748E+0	1.255937E+0	1.299497E+0	1.326144E+0	1.305086E+0	1.306829E+0	1.359490E+0	1.304963E+0	1.245313E+0	1.303011E+0	1.259744E+0	1.263514E+0	1.312433E+0	1.266325E+0	1.255119E+0	1.266335E+0	1.225949E+0	1.322763E+0	1.237121E+0	1.308121E+0	1.268378E+0	1.277181E+0	1.311038E+0	1.272276E+0	1.321355E+0	1.311675E+0	1.276909E+0	1.258719E+0	1.270419E+0	1.300798E+0	1.308084E+0	1.246246E+0	1.248773E+0	1.271869E+0	1.296641E+0	1.238407E+0	1.297125E+0	1.276404E+0	1.279737E+0	1.277352E+0	1.274479E+0	1.298718E+0	1.286075E+0	1.319571E+0	1.269018E+0	1.284702E+0	1.344615E+0	1.246597E+0	1.318537E+0	1.299949E+0	1.275814E+0	1.276383E+0	1.214481E+0	1.306008E+0	1.277100E+0	1.311201E+0	1.286471E+0	1.280346E+0	1.239944E+0	1.276297E+0	1.182597E+0	1.227697E+0	1.237340E+0	1.277567E+0	1.285349E+0	1.287390E+0	1.265184E+0	1.312916E+0	1.245028E+0	1.309951E+0	1.295150E+0	1.368538E+0	1.258358E+0	1.269228E+0	1.286042E+0	1.275211E+0	1.285121E+0	1.266602E+0	1.280401E+0	1.184976E+0	1.279405E+0	1.315774E+0	1.274026E+0	1.255175E+0	1.262091E+0	1.254547E+0	1.282065E+0	1.298910E+0	1.245837E+0	1.287810E+0	1.286125E+0	1.308315E+0	1.329153E+0	1.213755E+0	1.238687E+0	1.262710E+0	1.279252E+0	1.270113E+0	1.280276E+0	1.226970E+0	1.226437E+0	1.237701E+0	1.248507E+0	1.326649E+0	1.252587E+0	1.229897E+0	1.302522E+0	1.329037E+0	1.257810E+0	1.308084E+0	1.302199E+0	1.247670E+0	1.244695E+0	1.309897E+0	1.321523E+0	1.330629E+0	1.275139E+0	1.291852E+0	1.243352E+0	1.277087E+0	1.274788E+0	1.260992E+0	1.254330E+0	1.300088E+0	1.266387E+0	1.248988E+0	1.318630E+0	1.258535E+0	1.243223E+0	1.350087E+0	1.286433E+0	1.203714E+0	1.269209E+0	1.266509E+0	1.284971E+0	1.274337E+0	1.289348E+0	1.260394E+0	1.241183E+0	1.249755E+0	1.276877E+0	1.308851E+0	1.207299E+0	1.305808E+0	1.267979E+0	1.272005E+0	1.260672E+0	1.242475E+0	1.290945E+0	1.267066E+0	1.227212E+0	1.291973E+0	1.245069E+0	1.285376E+0	1.279479E+0	1.221214E+0	1.244724E+0	1.213913E+0	1.275881E+0	1.203241E+0	1.249023E+0	1.234234E+0	1.237729E+0	1.300044E+0	1.234675E+0	1.344841E+0	1.267103E+0	1.269345E+0	1.237312E+0	1.321816E+0	1.253485E+0
5.358600E+2	1.033638E+0	1.100286E+0	1.085320E+0	1.100472E+0	1.070690E+0	1.042219E+0	1.084291E+0	1.081166E+0	1.063963E+0	1.080034E+0	1.105201E+0	1.051522E+0	1.101284E+0	1.074223E+0	1.078615E+0	1.120381E+0	1.079036E+0	1.073180E+0	1.129575E+0	1.104765E+0	1.014371E+0	1.003608E+0	1.053092E+0	1.068934E+0	1.103688E+0	1.084434E+0	1.103794E+0	1.073375E+0	1.089919E+0	1.087920E+0	1.040822E+0	1.081786E+0	1.089258E+0	1.119131E+0	1.100321E+0	1.088568E+0	1.072408E+0	1.044718E+0	1.099536E+0	1.104639E+0	1.077568E+0	1.046216E+0	1.060254E+0	1.148311E+0	1.100685E+0	1.065104E+0	1.095312E+0	1.063449E+0	1.055536E+0	1.075462E+0	1.070757E+0	1.002538E+0	1.043475E+0	1.066085E+0	1.136430E+0	1.105592E+0	1.086397E+0	1.086926E+0	1.051713E+0	1.043100E+0	1.130155E+0	1.098767E+0	1.103100E+0	1.086522E+0	1.017928E+0	1.064233E+0	1.050038E+0	1.087243E+0	1.080391E+0	1.086645E+0	1.073379E+0	1.010641E+0	1.095631E+0	1.075464E+0	1.074415E+0	1.071341E+0	1.062010E+0	1.071671E+0	1.074564E+0	1.036752E+0	1.111815E+0	1.084536E+0	1.118271E+0	1.090861E+0	1.082894E+0	1.088602E+0	1.100872E+0	1.098578E+0	1.039940E+0	1.103036E+0	1.072557E+0	1.094723E+0	1.066949E+0	1.066620E+0	1.093693E+0	1.074904E+0	1.074788E+0	1.086196E+0	1.083047E+0	1.073011E+0	1.087665E+0	1.084168E+0	1.064444E+0	1.093945E+0	1.113867E+0	1.058381E+0	1.142846E+0	1.058797E+0	1.082067E+0	1.067660E+0	1.097944E+0	1.055683E+0	1.071935E+0	1.077410E+0	1.119265E+0	1.065914E+0	1.041735E+0	1.072110E+0	1.069430E+0	1.023458E+0	1.045730E+0	1.092185E+0	1.114573E+0	1.086850E+0	1.051637E+0	1.085353E+0	1.133959E+0	1.069068E+0	1.072503E+0	1.095223E+0	1.078967E+0	1.023903E+0	1.076001E+0	1.112199E+0	1.106483E+0	1.082515E+0	1.080058E+0	1.033031E+0	1.043788E+0	1.062022E+0	1.085511E+0	1.101832E+0	1.038393E+0	1.127980E+0	1.091359E+0	1.136735E+0	1.036522E+0	1.049664E+0	1.042723E+0	1.072618E+0	1.052538E+0	1.068779E+0	1.109737E+0	1.134899E+0	1.067384E+0	1.034118E+0	1.078550E+0	1.022646E+0	1.101839E+0	1.055830E+0	1.077226E+0	1.124959E+0	1.050372E+0	1.098976E+0	1.063490E+0	1.095794E+0	1.042809E+0	1.090099E+0	1.100970E+0	1.118555E+0	1.098663E+0
5.360070E+2	9.283525E-1	9.101323E-1	9.317124E-1	9.135281E-1	9.431754E-1	9.093354E-1	9.054156E-1	9.200250E-1	8.816768E-1	9.184492E-1	9.329913E-1	8.849051E-1	8.954360E-1	9.095500E-1	8.851451E-1	9.667013E-1	9.531191E-1	9.663484E-1	9.470774E-1	9.315513E-1	9.304735E-1	9.022803E-1	8.597337E-1	9.311623E-1	9.911095E-1	9.138413E-1	9.342607E-1	9.375317E-1	9.121795E-1	9.373079E-1	9.684271E-1	8.623716E-1	9.346900E-1	9.292505E-1	9.842922E-1	9.468391E-1	9.145612E-1	9.462608E-1	9.423268E-1	9.243856E-1	9.582597E-1	9.084990E-1	9.007915E-1	9.539547E-1	9.620487E-1	9.395499E-1	9.582898E-1	8.915811E-1	8.865523E-1	9.084317E-1	9.626436E-1	9.140663E-1	9.172121E-1	9.296250E-1	9.425861E-1	9.368046E-1	8.968891E-1	8.962866E-1	8.686597E-1	9.226733E-1	9.440157E-1	9.646852E-1	9.704903E-1	9.796864E-1	9.341737E-1	9.476167E-1	9.502786E-1	9.065039E-1	9.526856E-1	9.188157E-1	9.618655E-1	9.402941E-1	9.542162E-1	9.470717E-1	9.614394E-1	9.682117E-1	9.424951E-1	9.000291E-1	9.270708E-1	8.837092E-1	9.473440E-1	9.181847E-1	9.670572E-1	9.813610E-1	8.884369E-1	9.162115E-1	9.643306E-1	9.865086E-1	9.328069E-1	9.462203E-1	9.475508E-1	9.361055E-1	9.769999E-1	9.425459E-1	9.087776E-1	9.178304E-1	9.115684E-1	9.415025E-1	8.952416E-1	9.172726E-1	9.407956E-1	9.499076E-1	9.300894E-1	9.331515E-1	9.389990E-1	8.926665E-1	9.298833E-1	9.299471E-1	8.973692E-1	9.556310E-1	9.732879E-1	8.895299E-1	9.482489E-1	9.436642E-1	9.076575E-1	9.201828E-1	9.252641E-1	9.475021E-1	9.388027E-1	9.515868E-1	9.539773E-1	9.397777E-1	9.935035E-1	9.885291E-1	9.036057E-1	9.647423E-1	9.497583E-1	8.923622E-1	9.712766E-1	9.766699E-1	9.377495E-1	9.521260E-1	9.125725E-1	9.406337E-1	9.900667E-1	9.591644E-1	9.630624E-1	9.170922E-1	9.322220E-1	9.162208E-1	9.274460E-1	9.186935E-1	9.824173E-1	9.821505E-1	9.257645E-1	9.902147E-1	9.423014E-1	9.279845E-1	9.565073E-1	9.548006E-1	9.403238E-1	9.493358E-1	9.565560E-1	9.550166E-1	9.608353E-1	9.103592E-1	9.620271E-1	9.123870E-1	9.853345E-1	9.170074E-1	9.067117E-1	9.025734E-1	9.196779E-1	1.015977E+0	9.269776E-1	9.673174E-1	9.897728E-1	9.118997E-1	9.868033E-1	9.627075E-1	8.863561E-1
5.362680E+2	6.517317E-1	7.094112E-1	7.302485E-1	7.301406E-1	6.901489E-1	6.466572E-1	7.295744E-1	7.607183E-1	7.026420E-1	6.742544E-1	7.133651E-1	6.814244E-1	6.778504E-1	7.488573E-1	6.872577E-1	7.706360E-1	7.231323E-1	6.911049E-1	6.857945E-1	7.667863E-1	7.572254E-1	6.789567E-1	7.104236E-1	6.967404E-1	6.753715E-1	7.305349E-1	6.736299E-1	7.615219E-1	6.651041E-1	7.065576E-1	7.155916E-1	7.051623E-1	7.043081E-1	7.274277E-1	7.383570E-1	7.343677E-1	7.032278E-1	6.865404E-1	7.496585E-1	7.363317E-1	7.419403E-1	7.366349E-1	7.204582E-1	7.613231E-1	7.265109E-1	7.425108E-1	7.189289E-1	7.195537E-1	7.417644E-1	7.055633E-1	6.917993E-1	6.956389E-1	6.888448E-1	7.110649E-1	6.772886E-1	7.155323E-1	7.408924E-1	7.147235E-1	6.971841E-1	6.858701E-1	6.865340E-1	7.167859E-1	7.014245E-1	6.929588E-1	7.020395E-1	7.115850E-1	7.754735E-1	7.346484E-1	7.001331E-1	7.082832E-1	7.043260E-1	7.064734E-1	6.934640E-1	6.847171E-1	7.318657E-1	6.925871E-1	6.973929E-1	7.073679E-1	7.081701E-1	6.869951E-1	6.886386E-1	7.269731E-1	7.358641E-1	7.384790E-1	7.291311E-1	7.050704E-1	7.194701E-1	7.440670E-1	6.765313E-1	6.981086E-1	7.164978E-1	7.377120E-1	7.294950E-1	7.176006E-1	7.179236E-1	7.064818E-1	7.076934E-1	6.915330E-1	6.985199E-1	6.901711E-1	7.526901E-1	7.115674E-1	6.880180E-1	6.774323E-1	7.179245E-1	6.932949E-1	7.486801E-1	6.903311E-1	7.057439E-1	7.155236E-1	7.276943E-1	7.250830E-1	7.348088E-1	6.959461E-1	7.234420E-1	7.407323E-1	6.678484E-1	7.408452E-1	7.379581E-1	7.549390E-1	6.885658E-1	6.796752E-1	7.405251E-1	7.218626E-1	7.219647E-1	7.277842E-1	7.168820E-1	6.932350E-1	7.240235E-1	6.987390E-1	7.670078E-1	7.528238E-1	6.575039E-1	7.408941E-1	7.291927E-1	7.199854E-1	6.907901E-1	7.242599E-1	7.187616E-1	6.924923E-1	7.130088E-1	7.441594E-1	7.023436E-1	7.471738E-1	7.694608E-1	7.633134E-1	7.017199E-1	7.471024E-1	7.065814E-1	7.373128E-1	7.281872E-1	7.077016E-1	6.794623E-1	7.163886E-1	7.697933E-1	7.145297E-1	7.239759E-1	7.183174E-1	7.289833E-1	7.307179E-1	7.399724E-1	7.800166E-1	7.177087E-1	7.186099E-1	6.791681E-1	7.351172E-1	7.309302E-1	7.600586E-1	7.186138E-1	7.252683E-1	7.050148E-1
5.365140E+2	5.717257E-1	5.404114E-1	5.599126E-1	5.748194E-1	5.576330E-1	5.930520E-1	5.855030E-1	5.741950E-1	5.761543E-1	5.665657E-1	5.735826E-1	5.798937E-1	5.487246E-1	5.876291E-1	6.087048E-1	5.341446E-1	5.557837E-1	5.463073E-1	5.958051E-1	5.677574E-1	5.885551E-1	5.949953E-1	5.732632E-1	5.436916E-1	5.669102E-1	5.787972E-1	5.401821E-1	5.909630E-1	5.889963E-1	5.537115E-1	5.695342E-1	5.297644E-1	5.699521E-1	5.807003E-1	5.964351E-1	5.625912E-1	5.341889E-1	6.122853E-1	5.481017E-1	5.641367E-1	5.706901E-1	5.893437E-1	5.525822E-1	5.908427E-1	5.870964E-1	6.264491E-1	5.818536E-1	5.322807E-1	5.995254E-1	5.763369E-1	5.725303E-1	5.966811E-1	5.576145E-1	5.938713E-1	6.090844E-1	5.677540E-1	5.721842E-1	6.094401E-1	5.845016E-1	5.807286E-1	5.610536E-1	5.730775E-1	5.733752E-1	5.409246E-1	6.157317E-1	5.994794E-1	5.662195E-1	5.127102E-1	5.344689E-1	5.643983E-1	6.016135E-1	5.327472E-1	6.009255E-1	5.755142E-1	6.096089E-1	5.722354E-1	5.558810E-1	5.807048E-1	5.914734E-1	5.642524E-1	5.684947E-1	5.599608E-1	5.875398E-1	5.195022E-1	5.713704E-1	5.840223E-1	6.385263E-1	5.761755E-1	5.821949E-1	5.708513E-1	5.769079E-1	5.890730E-1	5.932618E-1	5.517843E-1	6.035576E-1	5.705516E-1	5.883453E-1	5.530448E-1	5.930524E-1	5.457397E-1	6.233897E-1	6.002028E-1	5.701038E-1	5.831699E-1	5.643061E-1	5.770037E-1	6.034428E-1	6.050309E-1	5.753853E-1	5.995783E-1	6.012567E-1	5.793496E-1	5.334862E-1	5.892965E-1	6.092075E-1	6.049558E-1	5.748634E-1	5.485425E-1	5.950575E-1	5.553092E-1	5.908816E-1	6.043657E-1	6.041549E-1	5.310379E-1	5.842028E-1	5.790061E-1	6.058407E-1	5.688023E-1	5.952488E-1	5.950584E-1	5.737635E-1	5.956905E-1	5.793066E-1	5.894546E-1	5.575344E-1	5.901319E-1	5.869221E-1	5.717203E-1	5.670466E-1	6.117630E-1	5.782552E-1	6.038003E-1	5.905881E-1	6.139007E-1	6.059040E-1	5.923415E-1	6.016074E-1	6.113513E-1	6.062027E-1	5.759027E-1	6.045750E-1	5.970617E-1	6.018775E-1	5.618660E-1	6.082951E-1	5.419636E-1	6.123573E-1	5.901319E-1	5.734054E-1	5.371493E-1	6.176924E-1	5.910939E-1	5.788400E-1	5.648779E-1	5.729419E-1	6.057097E-1	5.876217E-1	6.018894E-1	5.578666E-1	5.335259E-1	5.651325E-1
5.367970E+2	5.057994E-1	4.960413E-1	4.998937E-1	5.192773E-1	4.890382E-1	5.157817E-1	5.118343E-1	5.261803E-1	4.922670E-1	4.637514E-1	5.143733E-1	4.880616E-1	4.971291E-1	5.132225E-1	5.021532E-1	5.323120E-1	5.030405E-1	5.016747E-1	4.990103E-1	5.177723E-1	4.998503E-1	5.025219E-1	5.183631E-1	4.835942E-1	5.429599E-1	5.111497E-1	4.903747E-1	4.998582E-1	4.941195E-1	4.886783E-1	5.077924E-1	5.128662E-1	5.108262E-1	4.958018E-1	5.129163E-1	5.171430E-1	5.026222E-1	4.857196E-1	5.328251E-1	5.287447E-1	5.169031E-1	5.182200E-1	4.785377E-1	5.501926E-1	4.706574E-1	4.952848E-1	5.112532E-1	5.224163E-1	4.627192E-1	5.286314E-1	5.117673E-1	4.867701E-1	5.141959E-1	4.943778E-1	4.798262E-1	5.069882E-1	4.912302E-1	5.056368E-1	4.877492E-1	5.250673E-1	5.224008E-1	5.215233E-1	5.125498E-1	4.778601E-1	5.047089E-1	4.868622E-1	5.435959E-1	5.045173E-1	5.022225E-1	4.881674E-1	5.019980E-1	5.029672E-1	5.254714E-1	4.991587E-1	5.183153E-1	5.307842E-1	5.108273E-1	5.015561E-1	5.133041E-1	4.973633E-1	4.877617E-1	4.918293E-1	5.266765E-1	4.783058E-1	4.909863E-1	4.823629E-1	5.161319E-1	4.816656E-1	4.724031E-1	5.210897E-1	4.945975E-1	4.978521E-1	4.991523E-1	5.231091E-1	5.123622E-1	5.215324E-1	5.518939E-1	4.999305E-1	5.291091E-1	5.268328E-1	4.993200E-1	5.027699E-1	4.895703E-1	4.979389E-1	5.123596E-1	4.909335E-1	5.103858E-1	5.174755E-1	5.090382E-1	5.550416E-1	4.859604E-1	5.094720E-1	4.814941E-1	5.260356E-1	5.463960E-1	4.975987E-1	5.044097E-1	4.986511E-1	5.443930E-1	5.223001E-1	5.129356E-1	5.212503E-1	5.297773E-1	5.255594E-1	5.302284E-1	5.094586E-1	5.151845E-1	4.747591E-1	5.089317E-1	5.375941E-1	5.133063E-1	5.257462E-1	4.712078E-1	5.340579E-1	5.071069E-1	5.351146E-1	4.833683E-1	5.078079E-1	4.894953E-1	5.239782E-1	5.072894E-1	5.354236E-1	4.719446E-1	5.589405E-1	5.317439E-1	5.194482E-1	5.271157E-1	4.940354E-1	5.101121E-1	5.066664E-1	5.048671E-1	5.280994E-1	5.235431E-1	5.405546E-1	5.524654E-1	4.833859E-1	5.100499E-1	4.908692E-1	5.376145E-1	5.052685E-1	4.868989E-1	5.175998E-1	4.989556E-1	4.574338E-1	4.834178E-1	5.681993E-1	4.876132E-1	5.156654E-1	5.067579E-1	5.311833E-1	5.056032E-1
5.370070E+2	4.455606E-1	4.948126E-1	4.769226E-1	4.978640E-1	5.005408E-1	4.876663E-1	5.072302E-1	5.237168E-1	4.661620E-1	4.700841E-1	5.188391E-1	5.267238E-1	4.926953E-1	5.239555E-1	5.185120E-1	5.335860E-1	4.876689E-1	5.161962E-1	5.114584E-1	5.154182E-1	5.107944E-1	4.531304E-1	4.820950E-1	5.027928E-1	4.690323E-1	4.924353E-1	4.704497E-1	4.546735E-1	4.893424E-1	4.756834E-1	5.128938E-1	4.892898E-1	4.682135E-1	5.255717E-1	5.411531E-1	5.450921E-1	5.265182E-1	4.803376E-1	5.165043E-1	5.336327E-1	5.151418E-1	5.102991E-1	4.596781E-1	4.934177E-1	5.203166E-1	5.235299E-1	5.064112E-1	4.990132E-1	4.949345E-1	5.006017E-1	4.848089E-1	4.883968E-1	4.970250E-1	5.236512E-1	4.760581E-1	4.777272E-1	4.991304E-1	4.960289E-1	4.885836E-1	5.354805E-1	5.103070E-1	5.411954E-1	4.842344E-1	5.052952E-1	4.711618E-1	4.907969E-1	5.187430E-1	5.174157E-1	5.055757E-1	5.035834E-1	5.155520E-1	5.051526E-1	5.393795E-1	5.204762E-1	4.984475E-1	5.027023E-1	5.040684E-1	4.637252E-1	5.340873E-1	4.376325E-1	4.938838E-1	5.022309E-1	5.120911E-1	5.181081E-1	4.543545E-1	4.959918E-1	5.122170E-1	4.971623E-1	4.963286E-1	4.856074E-1	5.000668E-1	4.918326E-1	5.110145E-1	5.356058E-1	5.269484E-1	4.748598E-1	4.898284E-1	4.873254E-1	4.807534E-1	4.957660E-1	4.995512E-1	5.194142E-1	4.890005E-1	5.372927E-1	4.986028E-1	4.959887E-1	5.113006E-1	5.380303E-1	4.892654E-1	5.126450E-1	4.968053E-1	5.223865E-1	4.936612E-1	4.736570E-1	5.011571E-1	4.902901E-1	5.085019E-1	5.099488E-1	5.508566E-1	4.849383E-1	5.076090E-1	5.053727E-1	5.273745E-1	4.850591E-1	4.553928E-1	4.570265E-1	5.173827E-1	4.685544E-1	5.250668E-1	5.087969E-1	4.997009E-1	5.009458E-1	5.107880E-1	4.892925E-1	4.964734E-1	5.215799E-1	4.892978E-1	5.064142E-1	5.152748E-1	4.836024E-1	4.805785E-1	5.171663E-1	5.024962E-1	5.461721E-1	5.201635E-1	5.297916E-1	5.089383E-1	5.181969E-1	4.824546E-1	5.157012E-1	5.042988E-1	5.247143E-1	5.124311E-1	5.022805E-1	5.441886E-1	4.969718E-1	5.200838E-1	5.215834E-1	5.219382E-1	4.832355E-1	5.134733E-1	5.136648E-1	5.287300E-1	4.854747E-1	4.954617E-1	5.034166E-1	4.925250E-1	5.148100E-1	5.048031E-1	4.933068E-1	5.366042E-1
5.372800E+2	5.047773E-1	4.988147E-1	5.213888E-1	5.073297E-1	5.141456E-1	5.020862E-1	5.272536E-1	5.233566E-1	4.750114E-1	5.361205E-1	5.051700E-1	4.831137E-1	5.275823E-1	5.088629E-1	5.387669E-1	5.615268E-1	4.827271E-1	5.267050E-1	4.934295E-1	5.304545E-1	5.456019E-1	4.837346E-1	5.001645E-1	5.457359E-1	5.415282E-1	5.392952E-1	4.987703E-1	5.041533E-1	4.904843E-1	5.336487E-1	5.186552E-1	4.951429E-1	5.239363E-1	5.259819E-1	5.455075E-1	5.264912E-1	5.524546E-1	4.853359E-1	5.730717E-1	5.537244E-1	5.419863E-1	5.245052E-1	5.317278E-1	5.136857E-1	5.026831E-1	5.610152E-1	5.509831E-1	5.116429E-1	5.431442E-1	5.309075E-1	5.090774E-1	5.111035E-1	5.161372E-1	5.246535E-1	5.049761E-1	5.046785E-1	5.182159E-1	5.506650E-1	4.962940E-1	5.178165E-1	5.043561E-1	5.303247E-1	5.108850E-1	5.135590E-1	5.369639E-1	5.163463E-1	5.606117E-1	5.420040E-1	5.195688E-1	5.398458E-1	5.211949E-1	5.254286E-1	4.813539E-1	5.215786E-1	4.946779E-1	5.195874E-1	5.243403E-1	4.966564E-1	4.905561E-1	5.089523E-1	5.067983E-1	5.173178E-1	4.923046E-1	5.120445E-1	5.305914E-1	5.491067E-1	5.220139E-1	5.574502E-1	5.143111E-1	5.032778E-1	5.090025E-1	5.610362E-1	5.314646E-1	5.457711E-1	5.543354E-1	5.202377E-1	5.566907E-1	5.387779E-1	5.091828E-1	5.175946E-1	5.160615E-1	5.400666E-1	4.913413E-1	4.967099E-1	5.256093E-1	5.039463E-1	5.565924E-1	5.206782E-1	5.148223E-1	5.368932E-1	5.314134E-1	5.083225E-1	5.324896E-1	5.147132E-1	5.572731E-1	5.494708E-1	4.927358E-1	5.692154E-1	4.971823E-1	5.162145E-1	4.987177E-1	5.096222E-1	5.125549E-1	5.469144E-1	5.389395E-1	5.000595E-1	5.480920E-1	4.777858E-1	4.908978E-1	5.308487E-1	5.309922E-1	5.418624E-1	5.046748E-1	5.440297E-1	4.897188E-1	5.168176E-1	5.444991E-1	5.232581E-1	5.539759E-1	5.230648E-1	5.031053E-1	4.897732E-1	5.460623E-1	5.427782E-1	4.962310E-1	5.551640E-1	5.583587E-1	5.184614E-1	5.001277E-1	5.461025E-1	5.417634E-1	5.216743E-1	5.260330E-1	5.093983E-1	5.017581E-1	5.225693E-1	5.154303E-1	5.457922E-1	5.347920E-1	5.367530E-1	5.240597E-1	5.435967E-1	5.068996E-1	5.086092E-1	5.270753E-1	5.424851E-1	5.649780E-1	5.194004E-1	5.212781E-1	5.240692E-1	5.378788E-1
5.375060E+2	5.721220E-1	6.043223E-1	6.226203E-1	5.867402E-1	6.080277E-1	5.879723E-1	5.937826E-1	5.890396E-1	5.836552E-1	5.839471E-1	5.813931E-1	6.270853E-1	6.111350E-1	5.884076E-1	6.408594E-1	6.188772E-1	5.916979E-1	5.554242E-1	6.024934E-1	6.038276E-1	5.903015E-1	5.709339E-1	5.832045E-1	6.126011E-1	6.084002E-1	6.101131E-1	5.745773E-1	5.890077E-1	5.829618E-1	6.255395E-1	6.099950E-1	5.972310E-1	5.814972E-1	5.737705E-1	6.079212E-1	6.300805E-1	5.725735E-1	5.453963E-1	5.794788E-1	5.895150E-1	6.116131E-1	6.179569E-1	6.004288E-1	6.221956E-1	6.050016E-1	5.854243E-1	6.301392E-1	5.690302E-1	5.858581E-1	5.730953E-1	6.196305E-1	5.328496E-1	5.927584E-1	6.275372E-1	6.017709E-1	6.044701E-1	5.971893E-1	5.863466E-1	5.905154E-1	6.096994E-1	6.244455E-1	6.497885E-1	6.116412E-1	6.064423E-1	6.028450E-1	6.057263E-1	6.205656E-1	6.100134E-1	6.231906E-1	5.859874E-1	6.273171E-1	5.779268E-1	6.390403E-1	6.012627E-1	5.796393E-1	5.611186E-1	6.571947E-1	5.801317E-1	5.861880E-1	5.914642E-1	6.245547E-1	5.876539E-1	5.874081E-1	6.321813E-1	5.894601E-1	6.160612E-1	6.056229E-1	6.167887E-1	6.300345E-1	6.016834E-1	6.123734E-1	5.854356E-1	6.094570E-1	5.913075E-1	5.974283E-1	6.209380E-1	5.841341E-1	5.997029E-1	5.944361E-1	6.428711E-1	5.795878E-1	5.716873E-1	5.755664E-1	6.114484E-1	6.339350E-1	5.860808E-1	5.960170E-1	5.986203E-1	5.578482E-1	6.133343E-1	5.957880E-1	5.681765E-1	5.868984E-1	6.113054E-1	6.327824E-1	6.288237E-1	6.398607E-1	6.115733E-1	6.355589E-1	5.898817E-1	5.521036E-1	6.186851E-1	6.249019E-1	6.078974E-1	6.346406E-1	6.033897E-1	5.950765E-1	5.803785E-1	6.118010E-1	6.084714E-1	6.247751E-1	5.889291E-1	6.112583E-1	6.135602E-1	6.654343E-1	6.093086E-1	5.908878E-1	6.279754E-1	5.984871E-1	5.839830E-1	6.170409E-1	5.933448E-1	6.225657E-1	6.685553E-1	6.410640E-1	6.158287E-1	6.144755E-1	5.954289E-1	5.786626E-1	6.250159E-1	5.857750E-1	6.115324E-1	5.838126E-1	5.769469E-1	6.363456E-1	5.832882E-1	6.466253E-1	6.341484E-1	6.311498E-1	5.907631E-1	6.067619E-1	5.974606E-1	5.679746E-1	6.117710E-1	6.226489E-1	5.974694E-1	6.166225E-1	6.582442E-1	6.277203E-1	5.389321E-1	6.042524E-1
5.377630E+2	7.034398E-1	7.126121E-1	7.653289E-1	7.141256E-1	6.962304E-1	6.896595E-1	7.360978E-1	7.311567E-1	7.221437E-1	6.809790E-1	7.430719E-1	7.365667E-1	7.030788E-1	7.535841E-1	7.254252E-1	6.974306E-1	7.092413E-1	7.373587E-1	7.040962E-1	7.158546E-1	7.504583E-1	7.326577E-1	7.325481E-1	7.270689E-1	7.429687E-1	7.070095E-1	7.360171E-1	7.368588E-1	6.664059E-1	7.137302E-1	7.612948E-1	6.921102E-1	7.579887E-1	7.710537E-1	7.446929E-1	7.156738E-1	6.982127E-1	7.111116E-1	7.232366E-1	7.924522E-1	7.346805E-1	7.476920E-1	7.591833E-1	7.741358E-1	7.377206E-1	6.754169E-1	7.607285E-1	7.066599E-1	7.917629E-1	7.245299E-1	7.366109E-1	7.138285E-1	7.368060E-1	7.083451E-1	7.137454E-1	7.114439E-1	7.240984E-1	7.378762E-1	7.364136E-1	7.058782E-1	7.260870E-1	6.981201E-1	7.474148E-1	7.551299E-1	7.412333E-1	7.200491E-1	7.445615E-1	7.459894E-1	7.164295E-1	7.343981E-1	7.679572E-1	7.507632E-1	6.795272E-1	7.504807E-1	6.866870E-1	7.407278E-1	7.355395E-1	7.221251E-1	7.102309E-1	6.790932E-1	6.932653E-1	7.375906E-1	7.337059E-1	7.000037E-1	6.992902E-1	7.263820E-1	7.323937E-1	7.458111E-1	7.442352E-1	7.261005E-1	7.186602E-1	7.080496E-1	7.421367E-1	7.449895E-1	7.659178E-1	7.232688E-1	7.261825E-1	7.473175E-1	7.497914E-1	7.140005E-1	7.417680E-1	7.097773E-1	7.315434E-1	7.378814E-1	6.941706E-1	7.014549E-1	7.535877E-1	7.404382E-1	7.478649E-1	7.456916E-1	7.409258E-1	7.059410E-1	6.985708E-1	7.251936E-1	7.216104E-1	7.663560E-1	7.178592E-1	7.131166E-1	7.426391E-1	7.367086E-1	7.117547E-1	7.254966E-1	7.138019E-1	7.565921E-1	7.280185E-1	7.463207E-1	7.566491E-1	7.650594E-1	7.093277E-1	7.271853E-1	7.392676E-1	7.184306E-1	7.347544E-1	7.476139E-1	7.516984E-1	7.451633E-1	7.769949E-1	7.302534E-1	7.430899E-1	7.652028E-1	7.193311E-1	7.380310E-1	7.275203E-1	7.436454E-1	7.038323E-1	7.942278E-1	7.275710E-1	7.340788E-1	7.452802E-1	7.185406E-1	7.185133E-1	7.213501E-1	7.024087E-1	6.842969E-1	7.206661E-1	7.467284E-1	7.371718E-1	7.290205E-1	7.438305E-1	6.665805E-1	7.092535E-1	7.174811E-1	7.036547E-1	6.909898E-1	6.998672E-1	7.406059E-1	7.400253E-1	7.184121E-1	7.281646E-1	7.354201E-1	6.922654E-1
5.380480E+2	8.724386E-1	8.469484E-1	8.912221E-1	8.841211E-1	8.712798E-1	9.041500E-1	8.496465E-1	8.765727E-1	8.865969E-1	8.606239E-1	8.402557E-1	8.489944E-1	8.931671E-1	8.793748E-1	8.828327E-1	8.825115E-1	8.682706E-1	8.420345E-1	8.722533E-1	8.800246E-1	8.491419E-1	8.827998E-1	8.666726E-1	8.558943E-1	9.011701E-1	8.558028E-1	8.709534E-1	8.509451E-1	8.675880E-1	8.431254E-1	8.808706E-1	8.028281E-1	9.042644E-1	9.191130E-1	8.608570E-1	8.681668E-1	8.945996E-1	8.943654E-1	8.670607E-1	8.844222E-1	8.923861E-1	8.826583E-1	8.484700E-1	8.974293E-1	8.864922E-1	8.759259E-1	8.934813E-1	8.786792E-1	8.847561E-1	8.982112E-1	8.641678E-1	8.199285E-1	8.427734E-1	8.653815E-1	9.051210E-1	8.799721E-1	8.740201E-1	8.234078E-1	8.948829E-1	8.820118E-1	8.376306E-1	9.156976E-1	8.576963E-1	8.793106E-1	8.558939E-1	8.791188E-1	8.655977E-1	8.860775E-1	8.250245E-1	8.785401E-1	9.073813E-1	8.358463E-1	8.551311E-1	8.897410E-1	8.643339E-1	8.320723E-1	8.785595E-1	8.813614E-1	8.822054E-1	8.247749E-1	8.295956E-1	8.770765E-1	9.068421E-1	8.625493E-1	8.300324E-1	8.207221E-1	9.413667E-1	9.378758E-1	8.687128E-1	8.575465E-1	8.671732E-1	8.391511E-1	8.799344E-1	8.739600E-1	8.320240E-1	8.541653E-1	8.178616E-1	9.153736E-1	8.936976E-1	9.161601E-1	8.877847E-1	8.677812E-1	8.855167E-1	9.066735E-1	8.400029E-1	8.360039E-1	9.048272E-1	8.692906E-1	9.318509E-1	8.940789E-1	8.943480E-1	8.492629E-1	8.050911E-1	8.523989E-1	9.020570E-1	8.475646E-1	8.525631E-1	8.457474E-1	9.124694E-1	8.692144E-1	8.906503E-1	8.644230E-1	8.950837E-1	8.965375E-1	8.458508E-1	8.306879E-1	8.646676E-1	8.606653E-1	8.623306E-1	8.770056E-1	8.862423E-1	8.592983E-1	8.401219E-1	8.701083E-1	8.714595E-1	8.261250E-1	8.875480E-1	9.065221E-1	8.513312E-1	9.142212E-1	8.926569E-1	8.854121E-1	8.815544E-1	9.019521E-1	8.498823E-1	8.864973E-1	8.761392E-1	8.414184E-1	8.302317E-1	8.852138E-1	8.654087E-1	8.817544E-1	8.779923E-1	9.121870E-1	8.655495E-1	8.548852E-1	8.636835E-1	8.659503E-1	8.307452E-1	8.352642E-1	8.667498E-1	9.034010E-1	8.336934E-1	8.594777E-1	8.570064E-1	8.592774E-1	8.777667E-1	9.044809E-1	8.623128E-1	8.741716E-1	8.835589E-1
5.382640E+2	9.619385E-1	1.025942E+0	9.860218E-1	1.057200E+0	1.008122E+0	1.042651E+0	1.040222E+0	1.044926E+0	1.011977E+0	1.033922E+0	1.030189E+0	1.028693E+0	1.014072E+0	1.053916E+0	1.034070E+0	1.062014E+0	1.049045E+0	1.028590E+0	1.030688E+0	1.018216E+0	1.011924E+0	1.001818E+0	1.024187E+0	1.034580E+0	1.012276E+0	9.907499E-1	9.614893E-1	1.064900E+0	9.900576E-1	1.001196E+0	1.002510E+0	1.004573E+0	1.034839E+0	1.056069E+0	1.044838E+0	1.060048E+0	1.008490E+0	1.051008E+0	9.985387E-1	1.038143E+0	9.983648E-1	1.021286E+0	1.002833E+0	1.068929E+0	1.028278E+0	1.031257E+0	1.038658E+0	1.004288E+0	1.055538E+0	1.039164E+0	1.015925E+0	1.006422E+0	1.003221E+0	9.934849E-1	1.024630E+0	9.248561E-1	1.022956E+0	1.019806E+0	9.644613E-1	1.033653E+0	1.011617E+0	9.884453E-1	1.000839E+0	1.030564E+0	1.068275E+0	9.909601E-1	1.047392E+0	1.026519E+0	9.990534E-1	1.043377E+0	1.033618E+0	1.012536E+0	1.019140E+0	1.015218E+0	1.023849E+0	1.014873E+0	9.984267E-1	1.069843E+0	1.002317E+0	1.036751E+0	1.073742E+0	1.059465E+0	1.033848E+0	9.952440E-1	1.041385E+0	1.035192E+0	1.030527E+0	1.061929E+0	1.034527E+0	1.020941E+0	9.935148E-1	1.056387E+0	1.088824E+0	1.053933E+0	1.054664E+0	1.052623E+0	1.032496E+0	1.027188E+0	1.052052E+0	1.014149E+0	1.011082E+0	1.014504E+0	1.044879E+0	1.057416E+0	1.014701E+0	1.006243E+0	1.030176E+0	1.033863E+0	1.057221E+0	1.035240E+0	1.024383E+0	9.506475E-1	1.015197E+0	9.948362E-1	1.042124E+0	9.917542E-1	9.740321E-1	1.012095E+0	1.008228E+0	1.043350E+0	1.014399E+0	9.868119E-1	1.041805E+0	1.048488E+0	1.003169E+0	9.930873E-1	1.015266E+0	9.758217E-1	9.807268E-1	1.007162E+0	1.029891E+0	1.028290E+0	1.036073E+0	9.888303E-1	1.034428E+0	1.003449E+0	1.014760E+0	1.040168E+0	1.011526E+0	9.938229E-1	1.025810E+0	9.949697E-1	1.030178E+0	1.059142E+0	1.033444E+0	1.048730E+0	1.079270E+0	1.009729E+0	1.057193E+0	1.001647E+0	1.029152E+0	1.056826E+0	9.889019E-1	1.056264E+0	1.025044E+0	9.941011E-1	1.060786E+0	1.061051E+0	1.023568E+0	9.535960E-1	1.065809E+0	1.018523E+0	1.009237E+0	1.004937E+0	9.984083E-1	1.009064E+0	1.015989E+0	1.018915E+0	1.050553E+0	9.917478E-1	1.081583E+0
5.385170E+2	1.192974E+0	1.185203E+0	1.235637E+0	1.264182E+0	1.237912E+0	1.226543E+0	1.270715E+0	1.256789E+0	1.197708E+0	1.169696E+0	1.237665E+0	1.228817E+0	1.265326E+0	1.283494E+0	1.288487E+0	1.261730E+0	1.229346E+0	1.257577E+0	1.247714E+0	1.245823E+0	1.262509E+0	1.176162E+0	1.223027E+0	1.268183E+0	1.176541E+0	1.239334E+0	1.221819E+0	1.142608E+0	1.238665E+0	1.239344E+0	1.234288E+0	1.181785E+0	1.264259E+0	1.306196E+0	1.220046E+0	1.216226E+0	1.275961E+0	1.192687E+0	1.222505E+0	1.219840E+0	1.164993E+0	1.284943E+0	1.198718E+0	1.251437E+0	1.284930E+0	1.280320E+0	1.243391E+0	1.134393E+0	1.210452E+0	1.231723E+0	1.240545E+0	1.152667E+0	1.210867E+0	1.228890E+0	1.237961E+0	1.248484E+0	1.265533E+0	1.214120E+0	1.194840E+0	1.250438E+0	1.234651E+0	1.277461E+0	1.266901E+0	1.249636E+0	1.235965E+0	1.220274E+0	1.227576E+0	1.224929E+0	1.284594E+0	1.199683E+0	1.249549E+0	1.224130E+0	1.250806E+0	1.241101E+0	1.212590E+0	1.186441E+0	1.256538E+0	1.171972E+0	1.227577E+0	1.159401E+0	1.164750E+0	1.203786E+0	1.192909E+0	1.244939E+0	1.205448E+0	1.186819E+0	1.258257E+0	1.193556E+0	1.233539E+0	1.263751E+0	1.226785E+0	1.210596E+0	1.244669E+0	1.256899E+0	1.192009E+0	1.167888E+0	1.225557E+0	1.265091E+0	1.291177E+0	1.167789E+0	1.235625E+0	1.228125E+0	1.225107E+0	1.225157E+0	1.213135E+0	1.196967E+0	1.291629E+0	1.220963E+0	1.210483E+0	1.220810E+0	1.218920E+0	1.241464E+0	1.138366E+0	1.223627E+0	1.180665E+0	1.298881E+0	1.227257E+0	1.278289E+0	1.226310E+0	1.250234E+0	1.202855E+0	1.210168E+0	1.243726E+0	1.214113E+0	1.202517E+0	1.167810E+0	1.244799E+0	1.158050E+0	1.244955E+0	1.248118E+0	1.243581E+0	1.207232E+0	1.198469E+0	1.187595E+0	1.274356E+0	1.230793E+0	1.243650E+0	1.232528E+0	1.219735E+0	1.202936E+0	1.163982E+0	1.210038E+0	1.192258E+0	1.219644E+0	1.234357E+0	1.270661E+0	1.204008E+0	1.149798E+0	1.221970E+0	1.197955E+0	1.200269E+0	1.174533E+0	1.278454E+0	1.186831E+0	1.256873E+0	1.240942E+0	1.283215E+0	1.164867E+0	1.252779E+0	1.217268E+0	1.215405E+0	1.191216E+0	1.201592E+0	1.212401E+0	1.165193E+0	1.210519E+0	1.254978E+0	1.225087E+0	1.201240E+0	1.187945E+0	1.270662E+0
5.387970E+2	1.429920E+0	1.416390E+0	1.513255E+0	1.485318E+0	1.468225E+0	1.458691E+0	1.435503E+0	1.566702E+0	1.468019E+0	1.451626E+0	1.465507E+0	1.441631E+0	1.481542E+0	1.472421E+0	1.474133E+0	1.471131E+0	1.430782E+0	1.466599E+0	1.449176E+0	1.536716E+0	1.457465E+0	1.441085E+0	1.404164E+0	1.472785E+0	1.444010E+0	1.506310E+0	1.473127E+0	1.406233E+0	1.443095E+0	1.448976E+0	1.535173E+0	1.417289E+0	1.468620E+0	1.467177E+0	1.441504E+0	1.470434E+0	1.499413E+0	1.422100E+0	1.488293E+0	1.478155E+0	1.461334E+0	1.483216E+0	1.442022E+0	1.522471E+0	1.478442E+0	1.527244E+0	1.502413E+0	1.444174E+0	1.447900E+0	1.448578E+0	1.478541E+0	1.428938E+0	1.417174E+0	1.490577E+0	1.502382E+0	1.450419E+0	1.440579E+0	1.428429E+0	1.456627E+0	1.500243E+0	1.474268E+0	1.504742E+0	1.465224E+0	1.424905E+0	1.544953E+0	1.379809E+0	1.459399E+0	1.522498E+0	1.433640E+0	1.420955E+0	1.445699E+0	1.452753E+0	1.460489E+0	1.450957E+0	1.450583E+0	1.493161E+0	1.474109E+0	1.384796E+0	1.452909E+0	1.399554E+0	1.430922E+0	1.476426E+0	1.447175E+0	1.449218E+0	1.406446E+0	1.408399E+0	1.390123E+0	1.482090E+0	1.381124E+0	1.429554E+0	1.473976E+0	1.457304E+0	1.407505E+0	1.488209E+0	1.486868E+0	1.484029E+0	1.505305E+0	1.469286E+0	1.434260E+0	1.413591E+0	1.431162E+0	1.446372E+0	1.427986E+0	1.444460E+0	1.412378E+0	1.383427E+0	1.474721E+0	1.453071E+0	1.413664E+0	1.445469E+0	1.426752E+0	1.383918E+0	1.462156E+0	1.482142E+0	1.450404E+0	1.438485E+0	1.393390E+0	1.411539E+0	1.463380E+0	1.434671E+0	1.385923E+0	1.393303E+0	1.502747E+0	1.459125E+0	1.476997E+0	1.444014E+0	1.450872E+0	1.419045E+0	1.418510E+0	1.399659E+0	1.464515E+0	1.436852E+0	1.411897E+0	1.440234E+0	1.433429E+0	1.450951E+0	1.456741E+0	1.450085E+0	1.441814E+0	1.431296E+0	1.429446E+0	1.462758E+0	1.423008E+0	1.475947E+0	1.418817E+0	1.429860E+0	1.449960E+0	1.531408E+0	1.440044E+0	1.464630E+0	1.474895E+0	1.420142E+0	1.467856E+0	1.406685E+0	1.448990E+0	1.378309E+0	1.349237E+0	1.410430E+0	1.492722E+0	1.439617E+0	1.471862E+0	1.405590E+0	1.454122E+0	1.466901E+0	1.397107E+0	1.417016E+0	1.452695E+0	1.473003E+0	1.464108E+0	1.404801E+0	1.479047E+0
5.390130E+2	1.641061E+0	1.609847E+0	1.639240E+0	1.760539E+0	1.645814E+0	1.644674E+0	1.628399E+0	1.679767E+0	1.658775E+0	1.663535E+0	1.692789E+0	1.704162E+0	1.641933E+0	1.694577E+0	1.702938E+0	1.690847E+0	1.715073E+0	1.673044E+0	1.722700E+0	1.750709E+0	1.683828E+0	1.589809E+0	1.648492E+0	1.629815E+0	1.757665E+0	1.674549E+0	1.645528E+0	1.645812E+0	1.635111E+0	1.676538E+0	1.693287E+0	1.567537E+0	1.769749E+0	1.683798E+0	1.684533E+0	1.710764E+0	1.658023E+0	1.669143E+0	1.698973E+0	1.661268E+0	1.672012E+0	1.705891E+0	1.644682E+0	1.727023E+0	1.629434E+0	1.703023E+0	1.711803E+0	1.645606E+0	1.724852E+0	1.649527E+0	1.714292E+0	1.588127E+0	1.580912E+0	1.675315E+0	1.688174E+0	1.681144E+0	1.660868E+0	1.674132E+0	1.642777E+0	1.651223E+0	1.656394E+0	1.740696E+0	1.686313E+0	1.641045E+0	1.655840E+0	1.622347E+0	1.665947E+0	1.705824E+0	1.650611E+0	1.656862E+0	1.626573E+0	1.657261E+0	1.646184E+0	1.664418E+0	1.641131E+0	1.656564E+0	1.635469E+0	1.668901E+0	1.684490E+0	1.595207E+0	1.698180E+0	1.662758E+0	1.716096E+0	1.631970E+0	1.685896E+0	1.631413E+0	1.622774E+0	1.683577E+0	1.635107E+0	1.651737E+0	1.604977E+0	1.642578E+0	1.670259E+0	1.671412E+0	1.660404E+0	1.744199E+0	1.676910E+0	1.629717E+0	1.657367E+0	1.643182E+0	1.647408E+0	1.631018E+0	1.589012E+0	1.712833E+0	1.643037E+0	1.624432E+0	1.671814E+0	1.598262E+0	1.636587E+0	1.651992E+0	1.703783E+0	1.641264E+0	1.572763E+0	1.687819E+0	1.653955E+0	1.673680E+0	1.624616E+0	1.633782E+0	1.609664E+0	1.658890E+0	1.650015E+0	1.659264E+0	1.614009E+0	1.712947E+0	1.648586E+0	1.634724E+0	1.616321E+0	1.601503E+0	1.588259E+0	1.600478E+0	1.632907E+0	1.660010E+0	1.661567E+0	1.681754E+0	1.593253E+0	1.667466E+0	1.641652E+0	1.625774E+0	1.609553E+0	1.700563E+0	1.658409E+0	1.630878E+0	1.616214E+0	1.627194E+0	1.662899E+0	1.694102E+0	1.670333E+0	1.632349E+0	1.640204E+0	1.645294E+0	1.590772E+0	1.642250E+0	1.604720E+0	1.615499E+0	1.675445E+0	1.690505E+0	1.728236E+0	1.599849E+0	1.690226E+0	1.586162E+0	1.630506E+0	1.651320E+0	1.644045E+0	1.573911E+0	1.574449E+0	1.627058E+0	1.648638E+0	1.688340E+0	1.627696E+0	1.631540E+0	1.606508E+0
5.392930E+2	1.885798E+0	1.806902E+0	1.909255E+0	1.940981E+0	1.845515E+0	1.884852E+0	1.825396E+0	1.913533E+0	1.892563E+0	1.859477E+0	1.837211E+0	1.912933E+0	1.901677E+0	1.896538E+0	1.915608E+0	1.901489E+0	1.923711E+0	1.894917E+0	1.917130E+0	1.903688E+0	1.924015E+0	1.848850E+0	1.855551E+0	1.942781E+0	1.810986E+0	1.923182E+0	1.846274E+0	1.823914E+0	1.826370E+0	1.864868E+0	1.922881E+0	1.815563E+0	1.887580E+0	1.895045E+0	1.898995E+0	1.817508E+0	1.866927E+0	1.841617E+0	1.830454E+0	1.867886E+0	1.913656E+0	1.931875E+0	1.942976E+0	1.836667E+0	1.839079E+0	1.845977E+0	1.959350E+0	1.833313E+0	1.829942E+0	1.870165E+0	1.924328E+0	1.845407E+0	1.786771E+0	1.890280E+0	1.908797E+0	1.843731E+0	1.828409E+0	1.832533E+0	1.800718E+0	1.884987E+0	1.799342E+0	1.901364E+0	1.865050E+0	1.855755E+0	1.910736E+0	1.813595E+0	1.890151E+0	1.864559E+0	1.759676E+0	1.877933E+0	1.878558E+0	1.815938E+0	1.864692E+0	1.896330E+0	1.848594E+0	1.848976E+0	1.883677E+0	1.816187E+0	1.790804E+0	1.821106E+0	1.828603E+0	1.863458E+0	1.825543E+0	1.846155E+0	1.830141E+0	1.834128E+0	1.769108E+0	1.917747E+0	1.777281E+0	1.857874E+0	1.838709E+0	1.819997E+0	1.890673E+0	1.910001E+0	1.850815E+0	1.820606E+0	1.894286E+0	1.828851E+0	1.861138E+0	1.841797E+0	1.919638E+0	1.831007E+0	1.836217E+0	1.841308E+0	1.833350E+0	1.786528E+0	1.829699E+0	1.821251E+0	1.904736E+0	1.803675E+0	1.844339E+0	1.841239E+0	1.816912E+0	1.833873E+0	1.874482E+0	1.871410E+0	1.865117E+0	1.868400E+0	1.813221E+0	1.882860E+0	1.871633E+0	1.771775E+0	1.792651E+0	1.870072E+0	1.829785E+0	1.822714E+0	1.835218E+0	1.844054E+0	1.810131E+0	1.854060E+0	1.841834E+0	1.894446E+0	1.806869E+0	1.815524E+0	1.730611E+0	1.797347E+0	1.802480E+0	1.740869E+0	1.782847E+0	1.804741E+0	1.867799E+0	1.820110E+0	1.810626E+0	1.899399E+0	1.884978E+0	1.925181E+0	1.778823E+0	1.859487E+0	1.781029E+0	1.836673E+0	1.822716E+0	1.821617E+0	1.901916E+0	1.836161E+0	1.824247E+0	1.805629E+0	1.815619E+0	1.845288E+0	1.820116E+0	1.789482E+0	1.786623E+0	1.845264E+0	1.794844E+0	1.779148E+0	1.818743E+0	1.875911E+0	1.863534E+0	1.802580E+0	1.812775E+0	1.828676E+0	1.847258E+0
5.395210E+2	1.968906E+0	2.056968E+0	2.023673E+0	2.015129E+0	2.086676E+0	2.018754E+0	2.024468E+0	2.087225E+0	2.084879E+0	2.045313E+0	1.998461E+0	2.055344E+0	2.027856E+0	2.001002E+0	2.013894E+0	2.058955E+0	2.077130E+0	2.073419E+0	2.062368E+0	2.080042E+0	2.062543E+0	1.974056E+0	2.009367E+0	2.083011E+0	2.066624E+0	2.101699E+0	2.036132E+0	2.083301E+0	1.997277E+0	2.005827E+0	2.078051E+0	2.026593E+0	2.039193E+0	2.061119E+0	2.119764E+0	2.056687E+0	2.040862E+0	2.026207E+0	2.073845E+0	2.098903E+0	2.021295E+0	2.073982E+0	2.041434E+0	2.083244E+0	2.039031E+0	1.989250E+0	2.041062E+0	1.988446E+0	2.040867E+0	1.999283E+0	2.011035E+0	2.068362E+0	1.936252E+0	1.964241E+0	2.081727E+0	2.040458E+0	1.995576E+0	1.970590E+0	1.926172E+0	2.004560E+0	1.941060E+0	2.069950E+0	2.051373E+0	2.053098E+0	2.009452E+0	1.991645E+0	2.018132E+0	2.011194E+0	2.019413E+0	2.023340E+0	2.059530E+0	2.065250E+0	2.073797E+0	1.987631E+0	2.009324E+0	1.960677E+0	2.001410E+0	2.048829E+0	2.009033E+0	1.988364E+0	2.061433E+0	1.957138E+0	2.077096E+0	1.964196E+0	2.005645E+0	1.945447E+0	2.038501E+0	2.044117E+0	2.007207E+0	1.988427E+0	1.966282E+0	1.956130E+0	2.004966E+0	2.018868E+0	2.018174E+0	2.022750E+0	1.928630E+0	1.995920E+0	1.974291E+0	2.018141E+0	1.998205E+0	1.931699E+0	2.005837E+0	1.995087E+0	1.977236E+0	1.875967E+0	1.939624E+0	2.019505E+0	2.051986E+0	1.995115E+0	2.042915E+0	1.957562E+0	2.019143E+0	1.996601E+0	2.059863E+0	2.007660E+0	1.946323E+0	2.021762E+0	1.952687E+0	2.075043E+0	1.930413E+0	1.972193E+0	1.981283E+0	1.979621E+0	1.958056E+0	2.007682E+0	2.000000E+0	1.981545E+0	1.920311E+0	2.007026E+0	1.951777E+0	1.949677E+0	1.949416E+0	1.989527E+0	1.954392E+0	2.000076E+0	1.973957E+0	1.944829E+0	1.923795E+0	1.926017E+0	1.992728E+0	1.979780E+0	1.996601E+0	2.081054E+0	1.966799E+0	2.033312E+0	1.956367E+0	2.016933E+0	2.007675E+0	1.974079E+0	1.938988E+0	1.986168E+0	1.923375E+0	1.991614E+0	1.963231E+0	1.821711E+0	2.016510E+0	1.949526E+0	2.028160E+0	1.911572E+0	1.921115E+0	1.908906E+0	1.944018E+0	1.936242E+0	1.928961E+0	1.942173E+0	2.001365E+0	1.984535E+0	1.965543E+0	1.918253E+0	1.935380E+0
5.397650E+2	2.026333E+0	2.037944E+0	2.000055E+0	2.174785E+0	1.999419E+0	2.082660E+0	2.067376E+0	2.147530E+0	2.073187E+0	2.076389E+0	2.030471E+0	2.047110E+0	2.018280E+0	2.096035E+0	2.029838E+0	2.108998E+0	2.016327E+0	2.097324E+0	2.119463E+0	2.073208E+0	2.123347E+0	2.045968E+0	1.977608E+0	2.026204E+0	2.079974E+0	2.089215E+0	2.021807E+0	2.088965E+0	2.081579E+0	1.984292E+0	2.052046E+0	2.003583E+0	2.076366E+0	2.021635E+0	2.040793E+0	2.062251E+0	2.032137E+0	1.994678E+0	2.161423E+0	2.145779E+0	2.064431E+0	2.106217E+0	1.977631E+0	2.036278E+0	2.046986E+0	2.059982E+0	2.030873E+0	1.999731E+0	1.996453E+0	2.047737E+0	2.076795E+0	1.982078E+0	1.970726E+0	2.048162E+0	2.051175E+0	2.067254E+0	1.960979E+0	1.982294E+0	2.000913E+0	2.014312E+0	1.960871E+0	2.086184E+0	2.003634E+0	2.018973E+0	2.010067E+0	1.982717E+0	1.997466E+0	2.034441E+0	2.035616E+0	2.006019E+0	2.084411E+0	2.037396E+0	2.032170E+0	2.095752E+0	2.042613E+0	1.988558E+0	1.933701E+0	2.024925E+0	2.069022E+0	1.953135E+0	2.064426E+0	2.041728E+0	2.017715E+0	1.990125E+0	1.924591E+0	1.881276E+0	2.061712E+0	2.088254E+0	2.008464E+0	2.086096E+0	2.061418E+0	1.908173E+0	2.042338E+0	1.999303E+0	2.043356E+0	2.013809E+0	1.980145E+0	1.979617E+0	1.974052E+0	1.970226E+0	1.970052E+0	2.003706E+0	2.027355E+0	2.097495E+0	1.995118E+0	1.947138E+0	2.033620E+0	2.025144E+0	1.978472E+0	2.032833E+0	2.021727E+0	1.972811E+0	1.916804E+0	2.109532E+0	2.038569E+0	2.057538E+0	1.947781E+0	1.977564E+0	1.997718E+0	1.980969E+0	2.002085E+0	1.992315E+0	2.002296E+0	2.065296E+0	2.089038E+0	1.937469E+0	1.956353E+0	2.000621E+0	1.968883E+0	1.981607E+0	2.016738E+0	2.017879E+0	2.018440E+0	1.984130E+0	1.925073E+0	2.070439E+0	1.992154E+0	1.982169E+0	1.926695E+0	1.954003E+0	1.990978E+0	1.985551E+0	1.929052E+0	2.093931E+0	1.990148E+0	2.017692E+0	2.019959E+0	1.986389E+0	1.946024E+0	1.974266E+0	1.931118E+0	1.940239E+0	1.982607E+0	2.016617E+0	2.017730E+0	2.006061E+0	1.936377E+0	1.980807E+0	2.025709E+0	1.951769E+0	1.997507E+0	1.930186E+0	1.945348E+0	1.982913E+0	1.958014E+0	1.958015E+0	2.006111E+0	2.003804E+0	1.968429E+0	1.943692E+0	1.961713E+0
5.400190E+2	1.960181E+0	1.994879E+0	2.022690E+0	2.054802E+0	1.960871E+0	2.022624E+0	2.024359E+0	2.030353E+0	2.075210E+0	1.966439E+0	1.992447E+0	2.085996E+0	2.095136E+0	2.023566E+0	1.988163E+0	2.062588E+0	2.033502E+0	2.058040E+0	1.995425E+0	2.047923E+0	2.060195E+0	2.010050E+0	2.064132E+0	2.015831E+0	2.132685E+0	2.064661E+0	1.983643E+0	2.039213E+0	1.975381E+0	1.941513E+0	2.025952E+0	1.935146E+0	1.974259E+0	2.096069E+0	2.064883E+0	2.065601E+0	1.975683E+0	1.931836E+0	1.995546E+0	2.135551E+0	1.952750E+0	2.007710E+0	2.030864E+0	2.030876E+0	2.002667E+0	2.057896E+0	1.984659E+0	1.974440E+0	1.984079E+0	1.949679E+0	1.984041E+0	1.977636E+0	1.904716E+0	1.989270E+0	2.013427E+0	1.996554E+0	1.962236E+0	1.999916E+0	1.977930E+0	2.027026E+0	1.939110E+0	2.112845E+0	1.992479E+0	2.005305E+0	1.977355E+0	1.939573E+0	2.000824E+0	1.942108E+0	1.990757E+0	1.970034E+0	2.025116E+0	1.943772E+0	2.060059E+0	2.037464E+0	1.940246E+0	1.989934E+0	2.001633E+0	1.994912E+0	1.937200E+0	1.960021E+0	1.947874E+0	1.970436E+0	2.014056E+0	1.945194E+0	1.938805E+0	1.986433E+0	1.975017E+0	2.034981E+0	1.954711E+0	1.998626E+0	1.988610E+0	1.957123E+0	1.971347E+0	1.967220E+0	1.950991E+0	1.986304E+0	1.958703E+0	1.966315E+0	2.005009E+0	2.016971E+0	1.944150E+0	1.908434E+0	1.954968E+0	2.036131E+0	2.036655E+0	1.950478E+0	1.953061E+0	2.012855E+0	1.932324E+0	1.983409E+0	1.933217E+0	1.932237E+0	1.893888E+0	1.959636E+0	1.982420E+0	2.016519E+0	1.941556E+0	2.044970E+0	1.888180E+0	2.083925E+0	1.966610E+0	1.893913E+0	2.047027E+0	1.951650E+0	1.945687E+0	1.953244E+0	1.994894E+0	1.931803E+0	2.004561E+0	1.975090E+0	2.018897E+0	1.907531E+0	1.913960E+0	1.984463E+0	1.994101E+0	2.052309E+0	1.952645E+0	1.902847E+0	1.988623E+0	1.873433E+0	1.951042E+0	2.012078E+0	1.949708E+0	1.974025E+0	2.001029E+0	2.015421E+0	1.918300E+0	1.956623E+0	1.907149E+0	1.926804E+0	1.848299E+0	1.968287E+0	1.986713E+0	1.930506E+0	1.950450E+0	1.885452E+0	1.985819E+0	1.866145E+0	1.941249E+0	1.897932E+0	1.963924E+0	1.989956E+0	1.916611E+0	1.917251E+0	1.930537E+0	1.965001E+0	1.965440E+0	1.940854E+0	2.029053E+0	1.899025E+0	1.931553E+0
5.402790E+2	1.911070E+0	1.893108E+0	1.946640E+0	1.885178E+0	1.923451E+0	2.027459E+0	1.939168E+0	1.927248E+0	1.934184E+0	1.898068E+0	1.932966E+0	1.873490E+0	1.911364E+0	1.928489E+0	1.913430E+0	1.934463E+0	1.924025E+0	1.942195E+0	1.925207E+0	1.907117E+0	1.975141E+0	1.925644E+0	1.885030E+0	1.936820E+0	1.928228E+0	1.900108E+0	1.874976E+0	1.926093E+0	1.929072E+0	1.921714E+0	1.917278E+0	1.851437E+0	1.956479E+0	1.983804E+0	1.941663E+0	1.910703E+0	1.950429E+0	1.895180E+0	1.943540E+0	1.965106E+0	1.866195E+0	1.951369E+0	1.956054E+0	1.959309E+0	1.861084E+0	1.948664E+0	1.923572E+0	1.814812E+0	1.866246E+0	1.870926E+0	1.973104E+0	1.917783E+0	1.864851E+0	1.862907E+0	1.932509E+0	1.929748E+0	1.967198E+0	1.872742E+0	1.823846E+0	1.855527E+0	1.874765E+0	1.958490E+0	1.886302E+0	1.855385E+0	1.910727E+0	1.902048E+0	1.925277E+0	1.828091E+0	1.940118E+0	1.921574E+0	1.962730E+0	1.921437E+0	1.883437E+0	1.888622E+0	1.867435E+0	1.888277E+0	1.896036E+0	1.952076E+0	1.796279E+0	1.830399E+0	1.896140E+0	1.932015E+0	1.909498E+0	1.827828E+0	1.808839E+0	1.810426E+0	1.920606E+0	1.955150E+0	1.747346E+0	1.886412E+0	1.965076E+0	1.874897E+0	1.944600E+0	1.808132E+0	1.956019E+0	1.844342E+0	1.968845E+0	1.923753E+0	1.940287E+0	1.906300E+0	1.909976E+0	1.891992E+0	1.865690E+0	1.901439E+0	1.897785E+0	1.758453E+0	1.884612E+0	1.824365E+0	1.884183E+0	1.916632E+0	1.921082E+0	1.921371E+0	1.821197E+0	1.910134E+0	1.915001E+0	1.860618E+0	1.867186E+0	1.881948E+0	1.877047E+0	1.922425E+0	1.879156E+0	1.863393E+0	1.902394E+0	1.865022E+0	1.927511E+0	1.848501E+0	1.918181E+0	1.843040E+0	1.862897E+0	1.886189E+0	1.940291E+0	1.882748E+0	1.788345E+0	1.900313E+0	1.904729E+0	1.887966E+0	1.904524E+0	1.850926E+0	1.808176E+0	1.802272E+0	1.851462E+0	1.851445E+0	1.873323E+0	1.962529E+0	1.968769E+0	1.960016E+0	1.831498E+0	1.889927E+0	1.868961E+0	1.885599E+0	1.894156E+0	1.913873E+0	1.863726E+0	1.898223E+0	1.876311E+0	1.785458E+0	1.879624E+0	1.858072E+0	1.971906E+0	1.859034E+0	1.860873E+0	1.820003E+0	1.829005E+0	1.925544E+0	1.823958E+0	1.876459E+0	1.845837E+0	1.849125E+0	1.870514E+0	1.852002E+0	1.848536E+0
5.405080E+2	1.765814E+0	1.855888E+0	1.829673E+0	1.891340E+0	1.884304E+0	1.857126E+0	1.851556E+0	1.910440E+0	1.765027E+0	1.835140E+0	1.897002E+0	1.865742E+0	1.868554E+0	1.893113E+0	1.803646E+0	1.818674E+0	1.840384E+0	1.851821E+0	1.818254E+0	1.923855E+0	1.859640E+0	1.853310E+0	1.739550E+0	1.933403E+0	1.828503E+0	1.854048E+0	1.851895E+0	1.803238E+0	1.854529E+0	1.850374E+0	1.862508E+0	1.761185E+0	1.870976E+0	1.864421E+0	1.816764E+0	1.887479E+0	1.810395E+0	1.878155E+0	1.823455E+0	1.887867E+0	1.851800E+0	1.819216E+0	1.825752E+0	1.887108E+0	1.842404E+0	1.823846E+0	1.888500E+0	1.823649E+0	1.834144E+0	1.858550E+0	1.853819E+0	1.890627E+0	1.809273E+0	1.777273E+0	1.814654E+0	1.831101E+0	1.825916E+0	1.789350E+0	1.754593E+0	1.896888E+0	1.763590E+0	1.756036E+0	1.827287E+0	1.851447E+0	1.923679E+0	1.801071E+0	1.819345E+0	1.837708E+0	1.858546E+0	1.769717E+0	1.854819E+0	1.880635E+0	1.793909E+0	1.766693E+0	1.801295E+0	1.787870E+0	1.834608E+0	1.855084E+0	1.819674E+0	1.723110E+0	1.784487E+0	1.848073E+0	1.826140E+0	1.839230E+0	1.808483E+0	1.849416E+0	1.889076E+0	1.916592E+0	1.858414E+0	1.791175E+0	1.776494E+0	1.873349E+0	1.841277E+0	1.794662E+0	1.799606E+0	1.727723E+0	1.824671E+0	1.804654E+0	1.824078E+0	1.834092E+0	1.751757E+0	1.800991E+0	1.778643E+0	1.855507E+0	1.782748E+0	1.818092E+0	1.788972E+0	1.836227E+0	1.822758E+0	1.799453E+0	1.867149E+0	1.817619E+0	1.783060E+0	1.834576E+0	1.815400E+0	1.929257E+0	1.838504E+0	1.765585E+0	1.838102E+0	1.876348E+0	1.791802E+0	1.851405E+0	1.853564E+0	1.809415E+0	1.801039E+0	1.814990E+0	1.795506E+0	1.795795E+0	1.741339E+0	1.828542E+0	1.780965E+0	1.894196E+0	1.813754E+0	1.831955E+0	1.772716E+0	1.779220E+0	1.834877E+0	1.768584E+0	1.805313E+0	1.830523E+0	1.770880E+0	1.784441E+0	1.804192E+0	1.807928E+0	1.788290E+0	1.839959E+0	1.767179E+0	1.758966E+0	1.788986E+0	1.821848E+0	1.810769E+0	1.844095E+0	1.850048E+0	1.822518E+0	1.811907E+0	1.772512E+0	1.863600E+0	1.795933E+0	1.850664E+0	1.758291E+0	1.777232E+0	1.751462E+0	1.773559E+0	1.773778E+0	1.770924E+0	1.862982E+0	1.764149E+0	1.831140E+0	1.833824E+0	1.758300E+0	1.845752E+0
5.407630E+2	1.750259E+0	1.760944E+0	1.731852E+0	1.817526E+0	1.751208E+0	1.698075E+0	1.759253E+0	1.707541E+0	1.786095E+0	1.751724E+0	1.722168E+0	1.686901E+0	1.787502E+0	1.756253E+0	1.765937E+0	1.787376E+0	1.716545E+0	1.761354E+0	1.757838E+0	1.843995E+0	1.821048E+0	1.718725E+0	1.737026E+0	1.709833E+0	1.811510E+0	1.785763E+0	1.701574E+0	1.743559E+0	1.743679E+0	1.741447E+0	1.727557E+0	1.759920E+0	1.750609E+0	1.725716E+0	1.738421E+0	1.665504E+0	1.738378E+0	1.751565E+0	1.731154E+0	1.858378E+0	1.775504E+0	1.824205E+0	1.756187E+0	1.764574E+0	1.834468E+0	1.722757E+0	1.811082E+0	1.655727E+0	1.771520E+0	1.750989E+0	1.723768E+0	1.726505E+0	1.707924E+0	1.761547E+0	1.764309E+0	1.667770E+0	1.746130E+0	1.758307E+0	1.687786E+0	1.720719E+0	1.650853E+0	1.807157E+0	1.754239E+0	1.723901E+0	1.735603E+0	1.670464E+0	1.723128E+0	1.733576E+0	1.724013E+0	1.694226E+0	1.692058E+0	1.713521E+0	1.732058E+0	1.748777E+0	1.729838E+0	1.712998E+0	1.705171E+0	1.750563E+0	1.708540E+0	1.695545E+0	1.749809E+0	1.740036E+0	1.739193E+0	1.699830E+0	1.758817E+0	1.700616E+0	1.764152E+0	1.818862E+0	1.724872E+0	1.763012E+0	1.728305E+0	1.673119E+0	1.757598E+0	1.733121E+0	1.769674E+0	1.810323E+0	1.736256E+0	1.672515E+0	1.719558E+0	1.745854E+0	1.673807E+0	1.688979E+0	1.696774E+0	1.769592E+0	1.660972E+0	1.667667E+0	1.710548E+0	1.734604E+0	1.675126E+0	1.709413E+0	1.759003E+0	1.671204E+0	1.698136E+0	1.702975E+0	1.728531E+0	1.744544E+0	1.709846E+0	1.695187E+0	1.700261E+0	1.759341E+0	1.736812E+0	1.706091E+0	1.735439E+0	1.745701E+0	1.780085E+0	1.752438E+0	1.755105E+0	1.735620E+0	1.700187E+0	1.742972E+0	1.777445E+0	1.719062E+0	1.617982E+0	1.773363E+0	1.705625E+0	1.751774E+0	1.742852E+0	1.721496E+0	1.694084E+0	1.669389E+0	1.651865E+0	1.772211E+0	1.722248E+0	1.731623E+0	1.737924E+0	1.814161E+0	1.656339E+0	1.799749E+0	1.722247E+0	1.749654E+0	1.632798E+0	1.696532E+0	1.700165E+0	1.683941E+0	1.699450E+0	1.627209E+0	1.722739E+0	1.681422E+0	1.762002E+0	1.638495E+0	1.735246E+0	1.734480E+0	1.646325E+0	1.726858E+0	1.696667E+0	1.744914E+0	1.719474E+0	1.692444E+0	1.684676E+0	1.707420E+0	1.725980E+0
5.410240E+2	1.633705E+0	1.586358E+0	1.582580E+0	1.638925E+0	1.598253E+0	1.579963E+0	1.577872E+0	1.657290E+0	1.617192E+0	1.610062E+0	1.621565E+0	1.575581E+0	1.646730E+0	1.650520E+0	1.590733E+0	1.615448E+0	1.673642E+0	1.597198E+0	1.601714E+0	1.663796E+0	1.609556E+0	1.572877E+0	1.591695E+0	1.593710E+0	1.619399E+0	1.650738E+0	1.607645E+0	1.572230E+0	1.590627E+0	1.584828E+0	1.628241E+0	1.514374E+0	1.586164E+0	1.652715E+0	1.634336E+0	1.577124E+0	1.615044E+0	1.613125E+0	1.550890E+0	1.657962E+0	1.568315E+0	1.631286E+0	1.604832E+0	1.638755E+0	1.630717E+0	1.542559E+0	1.651706E+0	1.550043E+0	1.575450E+0	1.602260E+0	1.569334E+0	1.594221E+0	1.552674E+0	1.556648E+0	1.606513E+0	1.560866E+0	1.595611E+0	1.584908E+0	1.567414E+0	1.569919E+0	1.571519E+0	1.627455E+0	1.580147E+0	1.630146E+0	1.607622E+0	1.623320E+0	1.582365E+0	1.583605E+0	1.577987E+0	1.611138E+0	1.565361E+0	1.646023E+0	1.666523E+0	1.564257E+0	1.608814E+0	1.542242E+0	1.586457E+0	1.627137E+0	1.567505E+0	1.557625E+0	1.603737E+0	1.603131E+0	1.623046E+0	1.559864E+0	1.602145E+0	1.555084E+0	1.623396E+0	1.616375E+0	1.551012E+0	1.572609E+0	1.547660E+0	1.556076E+0	1.522850E+0	1.608390E+0	1.635616E+0	1.581504E+0	1.636216E+0	1.570017E+0	1.641392E+0	1.545885E+0	1.602852E+0	1.579491E+0	1.590704E+0	1.650381E+0	1.559386E+0	1.516592E+0	1.566935E+0	1.559146E+0	1.551705E+0	1.583289E+0	1.605040E+0	1.573108E+0	1.553886E+0	1.564988E+0	1.563296E+0	1.604951E+0	1.549098E+0	1.604001E+0	1.646949E+0	1.640581E+0	1.560084E+0	1.583309E+0	1.584126E+0	1.629925E+0	1.560196E+0	1.562430E+0	1.590351E+0	1.520957E+0	1.573997E+0	1.577375E+0	1.605037E+0	1.542145E+0	1.491959E+0	1.639709E+0	1.576464E+0	1.554746E+0	1.586263E+0	1.568836E+0	1.502567E+0	1.541314E+0	1.606686E+0	1.612709E+0	1.584327E+0	1.664021E+0	1.583936E+0	1.535509E+0	1.529078E+0	1.598196E+0	1.627383E+0	1.562682E+0	1.579994E+0	1.586300E+0	1.575231E+0	1.630655E+0	1.545145E+0	1.559250E+0	1.597279E+0	1.585021E+0	1.635186E+0	1.525518E+0	1.545955E+0	1.567563E+0	1.537601E+0	1.604423E+0	1.553878E+0	1.609879E+0	1.561507E+0	1.601985E+0	1.597536E+0	1.593375E+0	1.526456E+0
5.412640E+2	1.559088E+0	1.546396E+0	1.638860E+0	1.607109E+0	1.582656E+0	1.520012E+0	1.619054E+0	1.596307E+0	1.593810E+0	1.528078E+0	1.603502E+0	1.513307E+0	1.528907E+0	1.628865E+0	1.558804E+0	1.598309E+0	1.657105E+0	1.587090E+0	1.586668E+0	1.578732E+0	1.597173E+0	1.555192E+0	1.647195E+0	1.499222E+0	1.620744E+0	1.547604E+0	1.565539E+0	1.542284E+0	1.596393E+0	1.556759E+0	1.596008E+0	1.557778E+0	1.592912E+0	1.630414E+0	1.636743E+0	1.513151E+0	1.629582E+0	1.591301E+0	1.654076E+0	1.548125E+0	1.582382E+0	1.548799E+0	1.638197E+0	1.570032E+0	1.597997E+0	1.611381E+0	1.600549E+0	1.601315E+0	1.575060E+0	1.605229E+0	1.539091E+0	1.527981E+0	1.488980E+0	1.548799E+0	1.576996E+0	1.537775E+0	1.613776E+0	1.564764E+0	1.552839E+0	1.523285E+0	1.532682E+0	1.583642E+0	1.549623E+0	1.550932E+0	1.572725E+0	1.509888E+0	1.609312E+0	1.565931E+0	1.569300E+0	1.572730E+0	1.549929E+0	1.568159E+0	1.597017E+0	1.623691E+0	1.579737E+0	1.564939E+0	1.552863E+0	1.506786E+0	1.574703E+0	1.531114E+0	1.575849E+0	1.542303E+0	1.540282E+0	1.504391E+0	1.544772E+0	1.537331E+0	1.542531E+0	1.626185E+0	1.577919E+0	1.540696E+0	1.518205E+0	1.555276E+0	1.576620E+0	1.530748E+0	1.562906E+0	1.528629E+0	1.602012E+0	1.581361E+0	1.606620E+0	1.519372E+0	1.550894E+0	1.514365E+0	1.525701E+0	1.619942E+0	1.627126E+0	1.540885E+0	1.484110E+0	1.586526E+0	1.536902E+0	1.553344E+0	1.605434E+0	1.573853E+0	1.569675E+0	1.546727E+0	1.558894E+0	1.579176E+0	1.502193E+0	1.582285E+0	1.603851E+0	1.581908E+0	1.531190E+0	1.488648E+0	1.536417E+0	1.571137E+0	1.647176E+0	1.604322E+0	1.518607E+0	1.518231E+0	1.596455E+0	1.580726E+0	1.589084E+0	1.530071E+0	1.481166E+0	1.514780E+0	1.565411E+0	1.551632E+0	1.619664E+0	1.470992E+0	1.532188E+0	1.473784E+0	1.466382E+0	1.564533E+0	1.514037E+0	1.603066E+0	1.602176E+0	1.604349E+0	1.548188E+0	1.531707E+0	1.530926E+0	1.550343E+0	1.523427E+0	1.560318E+0	1.592814E+0	1.528933E+0	1.454949E+0	1.564111E+0	1.559635E+0	1.529716E+0	1.606760E+0	1.472566E+0	1.626265E+0	1.567825E+0	1.561076E+0	1.585789E+0	1.584086E+0	1.545590E+0	1.524644E+0	1.533812E+0	1.488465E+0	1.485603E+0	1.605399E+0
5.415190E+2	1.489263E+0	1.422151E+0	1.479720E+0	1.483499E+0	1.489101E+0	1.522084E+0	1.418277E+0	1.460385E+0	1.463663E+0	1.470725E+0	1.463349E+0	1.420918E+0	1.451115E+0	1.431372E+0	1.471579E+0	1.410111E+0	1.499637E+0	1.498031E+0	1.500402E+0	1.522009E+0	1.502843E+0	1.393442E+0	1.490579E+0	1.468355E+0	1.510192E+0	1.459357E+0	1.453809E+0	1.462041E+0	1.443206E+0	1.520964E+0	1.528853E+0	1.405907E+0	1.532410E+0	1.509173E+0	1.486905E+0	1.471362E+0	1.447745E+0	1.459146E+0	1.482861E+0	1.515240E+0	1.505616E+0	1.509048E+0	1.518050E+0	1.436752E+0	1.483635E+0	1.481462E+0	1.453854E+0	1.451212E+0	1.463446E+0	1.461520E+0	1.458959E+0	1.424973E+0	1.426567E+0	1.532611E+0	1.513559E+0	1.441434E+0	1.479650E+0	1.451485E+0	1.384445E+0	1.435031E+0	1.462825E+0	1.498336E+0	1.474413E+0	1.494244E+0	1.483991E+0	1.422956E+0	1.485069E+0	1.439239E+0	1.468815E+0	1.489736E+0	1.476904E+0	1.391254E+0	1.478768E+0	1.515666E+0	1.444402E+0	1.429205E+0	1.441873E+0	1.453614E+0	1.404207E+0	1.444909E+0	1.432407E+0	1.474710E+0	1.507558E+0	1.439104E+0	1.446494E+0	1.486353E+0	1.448471E+0	1.457405E+0	1.430219E+0	1.378552E+0	1.410863E+0	1.465203E+0	1.450724E+0	1.446806E+0	1.528581E+0	1.402059E+0	1.486195E+0	1.464363E+0	1.451879E+0	1.506347E+0	1.487817E+0	1.444101E+0	1.423984E+0	1.481246E+0	1.425989E+0	1.410209E+0	1.461945E+0	1.439398E+0	1.490326E+0	1.479418E+0	1.517062E+0	1.419649E+0	1.427895E+0	1.433216E+0	1.498324E+0	1.454588E+0	1.444658E+0	1.403871E+0	1.422369E+0	1.560859E+0	1.432079E+0	1.428125E+0	1.487394E+0	1.462511E+0	1.521253E+0	1.430815E+0	1.466352E+0	1.475222E+0	1.495040E+0	1.483940E+0	1.412828E+0	1.471693E+0	1.425424E+0	1.413382E+0	1.409979E+0	1.479948E+0	1.438883E+0	1.462311E+0	1.493371E+0	1.429762E+0	1.411828E+0	1.422367E+0	1.453387E+0	1.487817E+0	1.448179E+0	1.528192E+0	1.450067E+0	1.457660E+0	1.428309E+0	1.497104E+0	1.439689E+0	1.480179E+0	1.467461E+0	1.453699E+0	1.501938E+0	1.407768E+0	1.479878E+0	1.435374E+0	1.452290E+0	1.370473E+0	1.464722E+0	1.451901E+0	1.392632E+0	1.507759E+0	1.448140E+0	1.500612E+0	1.424277E+0	1.440702E+0	1.457755E+0	1.516024E+0	1.458422E+0
5.417650E+2	1.317809E+0	1.281582E+0	1.211017E+0	1.301778E+0	1.356637E+0	1.243689E+0	1.239054E+0	1.247332E+0	1.347791E+0	1.309317E+0	1.350303E+0	1.241379E+0	1.309020E+0	1.315271E+0	1.267389E+0	1.284492E+0	1.314155E+0	1.262144E+0	1.285814E+0	1.320201E+0	1.313215E+0	1.292422E+0	1.264097E+0	1.303860E+0	1.269210E+0	1.307519E+0	1.264179E+0	1.267545E+0	1.268297E+0	1.288180E+0	1.329852E+0	1.274064E+0	1.330761E+0	1.368402E+0	1.288359E+0	1.225172E+0	1.256419E+0	1.323289E+0	1.325473E+0	1.344873E+0	1.300148E+0	1.369811E+0	1.251771E+0	1.303829E+0	1.362283E+0	1.320957E+0	1.329376E+0	1.272573E+0	1.332216E+0	1.331402E+0	1.318944E+0	1.267114E+0	1.286822E+0	1.264667E+0	1.331370E+0	1.303259E+0	1.278322E+0	1.269903E+0	1.290885E+0	1.272218E+0	1.273889E+0	1.339690E+0	1.282803E+0	1.303355E+0	1.293976E+0	1.289320E+0	1.288910E+0	1.284606E+0	1.335357E+0	1.277773E+0	1.247046E+0	1.262762E+0	1.290204E+0	1.316233E+0	1.333930E+0	1.275456E+0	1.333795E+0	1.256924E+0	1.232518E+0	1.233608E+0	1.304943E+0	1.268443E+0	1.276376E+0	1.257753E+0	1.268920E+0	1.289797E+0	1.301105E+0	1.303001E+0	1.314980E+0	1.292637E+0	1.288437E+0	1.316518E+0	1.311750E+0	1.297473E+0	1.268943E+0	1.270127E+0	1.302365E+0	1.269145E+0	1.344865E+0	1.297998E+0	1.313150E+0	1.212693E+0	1.301549E+0	1.294849E+0	1.272090E+0	1.239831E+0	1.297200E+0	1.287878E+0	1.250235E+0	1.307491E+0	1.308598E+0	1.279641E+0	1.270500E+0	1.304350E+0	1.352965E+0	1.329528E+0	1.326453E+0	1.253470E+0	1.288017E+0	1.371051E+0	1.297495E+0	1.327356E+0	1.322717E+0	1.327871E+0	1.340005E+0	1.245765E+0	1.315683E+0	1.288875E+0	1.292335E+0	1.264124E+0	1.273865E+0	1.281383E+0	1.273600E+0	1.260037E+0	1.309083E+0	1.316324E+0	1.264818E+0	1.275197E+0	1.308483E+0	1.270359E+0	1.289409E+0	1.342517E+0	1.280771E+0	1.270487E+0	1.322675E+0	1.319482E+0	1.273770E+0	1.330780E+0	1.240696E+0	1.355461E+0	1.219873E+0	1.324706E+0	1.285478E+0	1.312499E+0	1.326932E+0	1.308490E+0	1.315708E+0	1.261064E+0	1.310290E+0	1.248208E+0	1.269530E+0	1.293907E+0	1.228901E+0	1.295857E+0	1.304152E+0	1.256698E+0	1.326237E+0	1.331489E+0	1.315955E+0	1.367120E+0	1.271641E+0
5.420160E+2	1.153855E+0	1.116201E+0	1.118287E+0	1.179220E+0	1.138796E+0	1.135691E+0	1.214137E+0	1.169061E+0	1.152153E+0	1.131765E+0	1.103860E+0	1.101401E+0	1.159235E+0	1.185048E+0	1.134682E+0	1.214287E+0	1.131502E+0	1.122409E+0	1.167316E+0	1.165293E+0	1.140289E+0	1.085338E+0	1.130951E+0	1.164337E+0	1.179444E+0	1.161276E+0	1.131564E+0	1.076746E+0	1.122874E+0	1.157415E+0	1.154691E+0	1.095566E+0	1.187628E+0	1.153910E+0	1.211717E+0	1.137986E+0	1.151521E+0	1.198176E+0	1.181035E+0	1.192307E+0	1.150510E+0	1.179707E+0	1.119961E+0	1.124073E+0	1.201667E+0	1.173481E+0	1.138716E+0	1.099982E+0	1.176948E+0	1.158238E+0	1.150835E+0	1.147284E+0	1.094751E+0	1.163995E+0	1.127388E+0	1.124738E+0	1.147133E+0	1.160957E+0	1.102940E+0	1.098728E+0	1.082671E+0	1.156665E+0	1.169527E+0	1.188694E+0	1.140004E+0	1.135238E+0	1.153706E+0	1.107226E+0	1.181693E+0	1.100107E+0	1.147137E+0	1.144925E+0	1.148837E+0	1.150755E+0	1.175200E+0	1.170727E+0	1.171361E+0	1.197408E+0	1.160044E+0	1.068766E+0	1.145142E+0	1.137912E+0	1.144723E+0	1.138540E+0	1.128901E+0	1.152386E+0	1.133753E+0	1.147706E+0	1.185390E+0	1.109109E+0	1.123938E+0	1.151215E+0	1.122252E+0	1.160776E+0	1.187240E+0	1.147279E+0	1.155964E+0	1.174158E+0	1.100106E+0	1.089495E+0	1.137346E+0	1.092227E+0	1.108485E+0	1.167292E+0	1.080921E+0	1.161924E+0	1.176228E+0	1.117969E+0	1.174713E+0	1.107738E+0	1.169121E+0	1.103076E+0	1.128279E+0	1.181487E+0	1.151213E+0	1.156479E+0	1.140966E+0	1.131338E+0	1.116494E+0	1.171998E+0	1.135364E+0	1.133060E+0	1.131884E+0	1.128744E+0	1.144017E+0	1.150392E+0	1.164505E+0	1.133123E+0	1.144902E+0	1.152957E+0	1.107470E+0	1.151525E+0	1.182505E+0	1.151823E+0	1.204775E+0	1.057588E+0	1.136460E+0	1.089086E+0	1.129325E+0	1.173371E+0	1.161960E+0	1.171412E+0	1.094235E+0	1.159181E+0	1.164180E+0	1.161710E+0	1.158572E+0	1.205431E+0	1.137224E+0	1.173580E+0	1.158916E+0	1.173508E+0	1.164369E+0	1.156415E+0	1.172050E+0	1.178007E+0	1.148222E+0	1.112448E+0	1.160074E+0	1.091281E+0	1.129241E+0	1.194713E+0	1.133053E+0	1.131394E+0	1.160468E+0	1.154801E+0	1.199160E+0	1.154094E+0	1.092206E+0	1.123828E+0	1.136427E+0
5.422890E+2	9.914897E-1	9.316957E-1	9.816134E-1	1.017509E+0	9.546180E-1	9.586619E-1	9.708731E-1	1.004678E+0	9.877411E-1	9.466241E-1	9.681775E-1	9.485610E-1	9.714866E-1	1.052774E+0	1.007167E+0	9.751570E-1	9.923378E-1	9.628710E-1	9.958319E-1	9.929307E-1	9.703358E-1	9.232517E-1	9.542533E-1	9.269141E-1	1.042545E+0	1.020943E+0	9.575591E-1	9.580772E-1	9.925280E-1	9.898071E-1	9.713962E-1	9.405072E-1	9.557871E-1	1.002399E+0	1.036415E+0	9.480141E-1	9.573439E-1	9.958939E-1	1.006084E+0	9.782268E-1	9.961553E-1	1.013871E+0	9.954408E-1	9.916864E-1	1.006356E+0	9.391318E-1	1.009438E+0	9.722783E-1	9.535528E-1	9.789596E-1	9.484701E-1	9.196976E-1	9.308804E-1	9.865872E-1	9.469632E-1	9.540993E-1	9.735288E-1	1.007170E+0	9.593627E-1	9.914505E-1	9.991704E-1	9.978390E-1	9.451344E-1	9.470913E-1	9.663070E-1	9.376593E-1	1.008906E+0	9.781268E-1	1.027257E+0	9.980539E-1	9.834357E-1	9.958290E-1	9.922025E-1	1.006266E+0	1.002672E+0	9.493247E-1	1.014713E+0	9.684680E-1	9.994046E-1	9.637015E-1	1.004629E+0	1.015513E+0	9.955616E-1	9.963372E-1	1.009100E+0	9.775639E-1	9.908335E-1	9.881452E-1	9.941977E-1	9.826083E-1	9.756610E-1	9.552872E-1	1.036790E+0	9.818749E-1	1.016137E+0	9.906390E-1	9.511216E-1	9.629634E-1	9.804332E-1	9.284830E-1	1.044791E+0	9.669378E-1	9.951387E-1	9.837579E-1	9.525685E-1	9.571807E-1	1.001309E+0	9.395459E-1	9.690357E-1	9.792332E-1	9.239013E-1	9.579429E-1	9.998914E-1	9.510781E-1	9.689767E-1	1.027570E+0	9.456339E-1	1.032155E+0	1.018144E+0	9.635635E-1	9.711453E-1	9.393601E-1	1.065530E+0	1.009014E+0	1.031774E+0	9.605402E-1	9.567611E-1	9.757881E-1	1.025855E+0	9.680306E-1	1.012458E+0	9.560197E-1	9.618524E-1	1.000298E+0	9.645225E-1	1.015027E+0	1.026517E+0	9.675739E-1	9.502812E-1	9.576852E-1	9.311894E-1	9.868591E-1	9.743218E-1	1.014306E+0	1.002421E+0	1.008728E+0	9.988887E-1	9.990738E-1	9.517008E-1	1.012346E+0	1.013612E+0	9.471436E-1	9.874999E-1	9.878506E-1	1.052830E+0	1.030328E+0	1.044870E+0	9.891162E-1	9.994153E-1	9.444519E-1	1.017711E+0	9.450805E-1	1.008094E+0	9.634292E-1	9.581412E-1	9.596983E-1	9.750388E-1	1.065332E+0	1.014809E+0	9.485186E-1	9.535242E-1
5.425300E+2	9.629728E-1	9.757423E-1	1.002155E+0	9.674348E-1	9.607100E-1	9.676093E-1	9.532807E-1	9.379807E-1	9.542174E-1	9.698907E-1	9.525932E-1	9.434090E-1	9.780251E-1	1.029799E+0	9.892632E-1	9.468079E-1	9.876401E-1	1.020135E+0	9.597588E-1	9.640548E-1	9.761714E-1	9.512422E-1	9.760345E-1	9.177768E-1	9.521684E-1	9.742954E-1	9.651592E-1	9.682803E-1	9.184118E-1	9.497780E-1	9.515698E-1	9.875686E-1	1.000321E+0	9.949990E-1	9.996984E-1	9.040399E-1	9.929403E-1	9.642867E-1	9.712257E-1	9.694943E-1	9.932461E-1	9.943194E-1	9.886244E-1	1.008581E+0	9.780745E-1	9.639365E-1	1.011518E+0	9.836972E-1	9.670351E-1	9.862470E-1	9.894362E-1	9.691935E-1	9.377530E-1	9.909272E-1	9.579467E-1	9.297552E-1	9.918806E-1	9.730517E-1	9.118254E-1	9.466426E-1	9.583825E-1	1.035992E+0	1.010662E+0	9.555836E-1	9.595536E-1	9.180887E-1	9.557515E-1	9.794570E-1	9.566825E-1	9.933390E-1	9.708194E-1	9.477265E-1	9.749499E-1	1.002917E+0	9.760194E-1	9.118064E-1	1.019428E+0	9.857184E-1	9.416262E-1	9.444234E-1	9.376896E-1	9.535076E-1	9.773180E-1	9.628349E-1	9.810535E-1	9.439107E-1	9.941866E-1	9.579663E-1	1.004569E+0	9.879633E-1	9.528083E-1	1.020650E+0	1.008127E+0	9.713130E-1	9.989688E-1	9.430341E-1	9.999604E-1	1.017002E+0	9.599816E-1	9.363304E-1	9.358946E-1	9.439632E-1	9.626485E-1	9.621139E-1	9.572449E-1	1.010991E+0	9.688298E-1	9.581587E-1	9.862636E-1	9.827398E-1	1.001818E+0	9.590822E-1	9.558228E-1	9.707819E-1	9.417537E-1	9.603859E-1	9.371310E-1	1.012210E+0	9.305942E-1	9.803135E-1	1.014422E+0	9.638454E-1	9.764705E-1	9.837879E-1	9.734710E-1	9.952611E-1	9.658416E-1	9.582620E-1	9.483156E-1	9.623527E-1	9.550247E-1	9.912119E-1	9.559932E-1	1.027842E+0	9.664607E-1	9.654775E-1	1.002370E+0	9.512224E-1	9.628010E-1	9.263268E-1	9.959787E-1	9.676067E-1	9.433540E-1	1.028503E+0	9.701752E-1	1.015470E+0	9.398360E-1	9.591060E-1	9.287861E-1	9.552060E-1	9.481317E-1	9.863867E-1	9.845965E-1	9.634527E-1	1.027547E+0	9.262554E-1	9.895887E-1	9.589573E-1	9.708877E-1	9.589199E-1	1.017028E+0	9.657098E-1	9.734818E-1	9.701182E-1	9.490257E-1	9.748655E-1	9.763003E-1	9.303858E-1	9.608261E-1	8.903733E-1	9.911936E-1
5.427650E+2	9.608924E-1	9.775677E-1	9.421923E-1	9.565360E-1	1.000141E+0	9.751170E-1	9.932960E-1	9.965087E-1	9.946369E-1	9.705203E-1	9.681902E-1	9.573564E-1	9.661800E-1	9.988793E-1	9.450917E-1	9.941563E-1	9.672549E-1	9.784165E-1	1.032099E+0	1.001408E+0	9.914422E-1	9.596219E-1	9.861298E-1	9.547500E-1	1.000386E+0	9.739479E-1	9.476926E-1	9.789969E-1	9.639598E-1	9.906690E-1	1.007981E+0	9.685274E-1	9.977481E-1	9.770278E-1	1.041306E+0	9.529774E-1	9.810707E-1	9.646254E-1	1.002612E+0	9.912767E-1	9.973661E-1	9.615238E-1	9.871659E-1	9.539143E-1	9.623437E-1	9.839029E-1	1.005674E+0	9.470910E-1	9.738389E-1	9.584277E-1	9.512998E-1	9.451599E-1	9.584144E-1	9.714255E-1	9.900411E-1	9.400384E-1	9.273253E-1	9.402292E-1	8.899883E-1	9.637321E-1	9.319409E-1	9.670442E-1	9.890599E-1	9.551245E-1	9.898437E-1	9.766464E-1	9.395803E-1	9.618139E-1	1.024511E+0	9.834978E-1	9.730886E-1	9.405213E-1	9.982782E-1	9.570429E-1	9.448917E-1	9.763197E-1	1.013458E+0	9.499655E-1	9.456787E-1	9.697655E-1	1.026187E+0	9.416351E-1	9.673296E-1	9.590124E-1	9.693512E-1	9.913063E-1	1.014310E+0	9.916187E-1	9.390913E-1	9.644803E-1	9.850211E-1	9.575466E-1	1.008204E+0	9.658812E-1	1.001717E+0	9.989395E-1	1.003477E+0	9.679899E-1	1.007545E+0	9.730275E-1	9.733654E-1	9.438253E-1	9.927091E-1	9.731719E-1	1.001611E+0	9.500530E-1	9.885885E-1	9.655372E-1	9.784617E-1	9.497018E-1	9.660022E-1	9.994445E-1	1.006709E+0	9.565877E-1	1.010952E+0	9.824777E-1	1.003983E+0	9.793184E-1	1.016639E+0	9.618633E-1	9.431445E-1	9.777945E-1	9.161788E-1	9.469274E-1	1.005448E+0	1.025557E+0	9.622678E-1	9.426441E-1	1.006226E+0	9.400721E-1	9.670949E-1	9.435979E-1	9.412610E-1	9.931996E-1	9.655821E-1	9.590102E-1	1.025081E+0	9.928847E-1	9.600218E-1	9.397988E-1	1.037659E+0	9.987731E-1	9.723902E-1	1.052065E+0	9.756228E-1	1.027516E+0	9.590183E-1	9.521639E-1	1.007645E+0	9.565969E-1	9.969920E-1	9.907114E-1	9.558710E-1	9.738156E-1	9.623161E-1	9.782408E-1	9.714966E-1	9.563101E-1	9.871158E-1	9.550675E-1	9.913819E-1	9.860077E-1	9.798606E-1	9.853141E-1	9.518401E-1	9.767993E-1	9.804285E-1	9.987818E-1	9.688807E-1	1.014306E+0	9.525192E-1
5.430170E+2	1.070329E+0	1.065111E+0	1.061250E+0	1.126782E+0	1.106732E+0	1.094296E+0	1.123939E+0	1.106137E+0	1.119198E+0	1.076841E+0	1.116421E+0	1.063106E+0	1.076340E+0	1.126032E+0	1.113302E+0	1.060373E+0	1.110566E+0	1.139380E+0	1.113294E+0	1.111345E+0	1.069155E+0	1.087246E+0	1.087205E+0	1.063447E+0	1.129531E+0	1.112057E+0	1.086328E+0	1.067004E+0	1.109316E+0	1.082868E+0	1.138195E+0	1.057979E+0	1.112366E+0	1.195369E+0	1.151724E+0	1.081541E+0	1.095243E+0	1.114129E+0	1.133646E+0	1.128359E+0	1.081687E+0	1.118473E+0	1.092357E+0	1.090084E+0	1.118058E+0	1.068529E+0	1.100617E+0	1.081507E+0	1.090439E+0	1.102744E+0	1.132862E+0	1.116354E+0	1.058510E+0	1.103152E+0	1.174743E+0	1.043365E+0	1.058155E+0	1.090724E+0	1.054795E+0	1.020520E+0	1.132774E+0	1.119094E+0	1.123259E+0	1.094690E+0	1.086739E+0	1.080055E+0	1.105690E+0	1.119486E+0	1.079148E+0	1.051594E+0	1.112938E+0	1.047876E+0	1.099882E+0	1.142932E+0	1.050192E+0	1.088250E+0	1.123120E+0	1.072542E+0	1.055564E+0	1.064094E+0	1.102417E+0	1.078340E+0	1.075501E+0	1.074887E+0	1.114260E+0	1.106711E+0	1.129748E+0	1.056676E+0	1.110968E+0	1.155799E+0	1.105637E+0	1.096560E+0	1.100103E+0	1.072709E+0	1.088119E+0	1.149009E+0	1.088101E+0	1.061525E+0	1.141803E+0	1.074778E+0	1.093667E+0	1.068895E+0	1.063765E+0	1.122624E+0	1.085655E+0	1.087318E+0	1.106936E+0	1.030724E+0	1.077567E+0	1.130506E+0	1.050715E+0	1.096385E+0	1.008873E+0	1.086435E+0	1.097742E+0	1.063006E+0	1.113001E+0	1.101625E+0	1.098706E+0	1.055218E+0	1.122698E+0	1.121075E+0	1.082746E+0	1.050596E+0	1.096232E+0	1.084259E+0	1.067860E+0	1.073498E+0	1.098696E+0	1.087713E+0	1.081442E+0	1.136866E+0	1.103242E+0	1.121248E+0	1.046999E+0	1.063663E+0	1.089400E+0	1.104650E+0	1.082702E+0	1.095410E+0	1.055389E+0	1.156199E+0	1.102331E+0	1.141391E+0	1.040168E+0	1.108807E+0	1.097395E+0	1.101430E+0	1.092579E+0	1.152170E+0	1.086901E+0	1.097585E+0	1.140573E+0	1.094559E+0	1.112167E+0	1.060896E+0	1.159365E+0	1.132895E+0	1.148440E+0	1.082941E+0	1.070232E+0	1.062604E+0	1.072642E+0	1.096767E+0	1.104601E+0	1.109128E+0	1.116216E+0	1.040029E+0	1.060190E+0	1.057321E+0	1.026998E+0
5.432960E+2	1.257572E+0	1.185386E+0	1.198469E+0	1.306912E+0	1.191926E+0	1.255599E+0	1.244772E+0	1.228513E+0	1.230547E+0	1.238080E+0	1.262944E+0	1.263195E+0	1.260862E+0	1.279753E+0	1.255192E+0	1.197848E+0	1.238088E+0	1.256612E+0	1.224412E+0	1.258429E+0	1.232014E+0	1.255738E+0	1.204422E+0	1.197018E+0	1.275682E+0	1.246969E+0	1.236398E+0	1.201072E+0	1.243620E+0	1.266260E+0	1.336041E+0	1.203635E+0	1.223578E+0	1.222930E+0	1.289022E+0	1.268708E+0	1.226983E+0	1.225118E+0	1.304762E+0	1.246878E+0	1.266438E+0	1.270180E+0	1.232179E+0	1.261750E+0	1.258049E+0	1.275799E+0	1.246892E+0	1.245270E+0	1.205417E+0	1.257520E+0	1.209095E+0	1.234833E+0	1.200130E+0	1.236017E+0	1.218178E+0	1.199504E+0	1.270700E+0	1.248977E+0	1.185859E+0	1.265835E+0	1.196910E+0	1.280749E+0	1.239060E+0	1.245252E+0	1.252325E+0	1.265530E+0	1.231850E+0	1.193480E+0	1.286293E+0	1.224840E+0	1.254938E+0	1.222672E+0	1.303557E+0	1.200698E+0	1.221673E+0	1.220058E+0	1.226920E+0	1.251683E+0	1.221178E+0	1.188085E+0	1.229492E+0	1.256811E+0	1.276485E+0	1.242930E+0	1.221481E+0	1.239082E+0	1.215230E+0	1.238087E+0	1.233075E+0	1.242854E+0	1.164343E+0	1.203618E+0	1.283789E+0	1.223838E+0	1.266809E+0	1.261871E+0	1.235863E+0	1.262651E+0	1.269548E+0	1.270200E+0	1.210193E+0	1.218556E+0	1.169380E+0	1.273151E+0	1.281243E+0	1.218030E+0	1.236772E+0	1.231165E+0	1.246217E+0	1.264273E+0	1.243751E+0	1.239727E+0	1.212460E+0	1.200328E+0	1.255135E+0	1.238441E+0	1.243014E+0	1.249890E+0	1.234221E+0	1.247647E+0	1.207111E+0	1.196577E+0	1.215093E+0	1.286844E+0	1.250329E+0	1.218987E+0	1.316185E+0	1.221650E+0	1.206990E+0	1.246866E+0	1.252601E+0	1.211085E+0	1.268896E+0	1.224497E+0	1.191292E+0	1.259547E+0	1.293739E+0	1.240936E+0	1.228739E+0	1.230970E+0	1.268960E+0	1.233120E+0	1.230662E+0	1.272100E+0	1.240683E+0	1.272651E+0	1.217916E+0	1.243975E+0	1.237363E+0	1.228844E+0	1.175777E+0	1.272126E+0	1.194662E+0	1.256672E+0	1.263848E+0	1.222450E+0	1.256929E+0	1.202829E+0	1.227277E+0	1.228188E+0	1.226969E+0	1.205764E+0	1.219434E+0	1.219629E+0	1.229953E+0	1.238940E+0	1.260411E+0	1.228468E+0	1.245643E+0	1.248251E+0	1.196675E+0
5.435220E+2	1.379085E+0	1.336122E+0	1.304627E+0	1.290929E+0	1.299554E+0	1.254472E+0	1.350974E+0	1.288122E+0	1.340781E+0	1.366089E+0	1.322132E+0	1.267235E+0	1.297382E+0	1.321420E+0	1.337578E+0	1.321799E+0	1.314518E+0	1.289474E+0	1.295893E+0	1.326976E+0	1.372368E+0	1.299166E+0	1.362359E+0	1.331651E+0	1.379765E+0	1.352703E+0	1.338634E+0	1.318114E+0	1.308632E+0	1.346290E+0	1.339164E+0	1.286690E+0	1.366898E+0	1.339323E+0	1.315449E+0	1.261780E+0	1.308422E+0	1.336858E+0	1.280870E+0	1.322584E+0	1.329591E+0	1.346841E+0	1.377929E+0	1.333579E+0	1.357001E+0	1.308207E+0	1.302942E+0	1.342010E+0	1.314624E+0	1.238735E+0	1.298115E+0	1.302378E+0	1.275817E+0	1.352296E+0	1.323686E+0	1.298268E+0	1.321185E+0	1.346537E+0	1.258211E+0	1.345551E+0	1.350964E+0	1.316917E+0	1.263859E+0	1.275993E+0	1.380407E+0	1.315598E+0	1.231068E+0	1.300488E+0	1.359559E+0	1.333277E+0	1.339451E+0	1.297091E+0	1.316826E+0	1.302795E+0	1.303782E+0	1.264913E+0	1.350489E+0	1.329794E+0	1.288577E+0	1.259152E+0	1.283577E+0	1.295527E+0	1.318083E+0	1.282559E+0	1.321408E+0	1.287429E+0	1.287659E+0	1.313804E+0	1.275976E+0	1.329739E+0	1.291741E+0	1.336821E+0	1.314777E+0	1.334331E+0	1.294558E+0	1.296750E+0	1.276999E+0	1.357464E+0	1.358821E+0	1.337562E+0	1.279310E+0	1.317252E+0	1.308586E+0	1.344411E+0	1.362610E+0	1.244501E+0	1.303147E+0	1.319928E+0	1.297776E+0	1.329568E+0	1.344803E+0	1.320225E+0	1.279604E+0	1.334504E+0	1.321347E+0	1.292373E+0	1.289715E+0	1.348409E+0	1.308028E+0	1.346041E+0	1.296446E+0	1.332478E+0	1.296331E+0	1.338917E+0	1.304078E+0	1.257118E+0	1.328027E+0	1.314083E+0	1.294668E+0	1.334001E+0	1.268641E+0	1.317794E+0	1.253559E+0	1.335777E+0	1.310884E+0	1.296739E+0	1.301734E+0	1.384331E+0	1.286710E+0	1.328462E+0	1.319846E+0	1.305447E+0	1.245588E+0	1.419430E+0	1.385595E+0	1.374522E+0	1.301721E+0	1.271802E+0	1.347961E+0	1.336179E+0	1.299746E+0	1.262678E+0	1.307721E+0	1.363417E+0	1.279956E+0	1.333212E+0	1.341991E+0	1.294775E+0	1.306306E+0	1.242401E+0	1.301939E+0	1.316023E+0	1.255788E+0	1.326815E+0	1.322611E+0	1.344876E+0	1.295241E+0	1.323581E+0	1.332318E+0	1.329240E+0	1.351565E+0
5.437910E+2	1.535842E+0	1.503329E+0	1.583228E+0	1.629168E+0	1.506598E+0	1.590827E+0	1.597751E+0	1.541884E+0	1.606392E+0	1.582933E+0	1.573980E+0	1.479416E+0	1.578495E+0	1.537684E+0	1.616842E+0	1.575861E+0	1.590998E+0	1.524508E+0	1.551888E+0	1.562700E+0	1.603235E+0	1.533259E+0	1.565354E+0	1.533121E+0	1.631142E+0	1.566770E+0	1.543967E+0	1.521384E+0	1.592293E+0	1.536358E+0	1.586345E+0	1.536471E+0	1.589918E+0	1.562823E+0	1.587152E+0	1.556879E+0	1.606472E+0	1.583229E+0	1.584504E+0	1.593979E+0	1.611116E+0	1.620534E+0	1.563310E+0	1.623243E+0	1.594862E+0	1.594204E+0	1.549507E+0	1.488079E+0	1.575026E+0	1.530203E+0	1.530666E+0	1.545110E+0	1.472157E+0	1.514709E+0	1.578189E+0	1.504263E+0	1.594949E+0	1.548248E+0	1.582728E+0	1.501167E+0	1.553343E+0	1.620024E+0	1.576646E+0	1.575179E+0	1.586333E+0	1.489960E+0	1.524839E+0	1.528260E+0	1.562152E+0	1.506876E+0	1.530663E+0	1.519591E+0	1.585837E+0	1.530852E+0	1.547829E+0	1.491183E+0	1.527512E+0	1.566220E+0	1.575224E+0	1.449725E+0	1.482674E+0	1.528713E+0	1.542283E+0	1.440428E+0	1.553317E+0	1.548626E+0	1.525411E+0	1.556082E+0	1.512524E+0	1.552637E+0	1.560466E+0	1.496736E+0	1.530484E+0	1.536054E+0	1.554826E+0	1.542681E+0	1.581363E+0	1.515031E+0	1.577994E+0	1.503480E+0	1.561731E+0	1.459375E+0	1.529431E+0	1.557761E+0	1.535378E+0	1.495164E+0	1.493988E+0	1.482534E+0	1.570081E+0	1.554606E+0	1.566728E+0	1.552259E+0	1.445181E+0	1.542314E+0	1.582798E+0	1.540377E+0	1.543063E+0	1.506068E+0	1.526518E+0	1.600594E+0	1.553567E+0	1.531893E+0	1.582864E+0	1.501178E+0	1.543166E+0	1.551961E+0	1.552160E+0	1.464289E+0	1.550075E+0	1.545069E+0	1.579825E+0	1.477706E+0	1.518789E+0	1.565450E+0	1.497717E+0	1.530152E+0	1.570057E+0	1.484062E+0	1.467598E+0	1.469009E+0	1.593606E+0	1.541020E+0	1.492721E+0	1.573108E+0	1.559892E+0	1.549128E+0	1.441756E+0	1.535242E+0	1.532914E+0	1.542290E+0	1.476609E+0	1.508221E+0	1.501000E+0	1.494979E+0	1.520873E+0	1.460755E+0	1.502286E+0	1.509704E+0	1.538171E+0	1.464776E+0	1.525711E+0	1.491470E+0	1.497843E+0	1.486651E+0	1.552562E+0	1.466657E+0	1.561508E+0	1.510782E+0	1.575007E+0	1.567157E+0	1.480123E+0
5.440170E+2	1.576250E+0	1.522641E+0	1.644864E+0	1.591380E+0	1.555868E+0	1.624599E+0	1.581814E+0	1.605787E+0	1.610876E+0	1.567525E+0	1.600624E+0	1.605979E+0	1.546874E+0	1.606526E+0	1.640715E+0	1.564958E+0	1.496692E+0	1.607543E+0	1.627879E+0	1.597454E+0	1.634454E+0	1.522065E+0	1.613605E+0	1.572514E+0	1.570128E+0	1.648687E+0	1.570433E+0	1.544974E+0	1.549631E+0	1.527059E+0	1.626993E+0	1.541074E+0	1.624532E+0	1.625627E+0	1.518377E+0	1.581613E+0	1.608591E+0	1.620627E+0	1.659458E+0	1.575481E+0	1.615320E+0	1.602024E+0	1.612116E+0	1.607828E+0	1.614613E+0	1.523629E+0	1.660904E+0	1.468555E+0	1.538867E+0	1.612797E+0	1.549892E+0	1.578197E+0	1.563224E+0	1.588267E+0	1.606133E+0	1.541915E+0	1.612568E+0	1.555936E+0	1.597615E+0	1.584643E+0	1.548777E+0	1.655921E+0	1.586397E+0	1.564824E+0	1.538302E+0	1.578169E+0	1.591438E+0	1.537898E+0	1.533661E+0	1.581622E+0	1.562833E+0	1.581877E+0	1.576941E+0	1.618254E+0	1.492207E+0	1.519616E+0	1.613189E+0	1.575520E+0	1.553736E+0	1.486730E+0	1.548285E+0	1.576505E+0	1.549454E+0	1.535372E+0	1.577660E+0	1.564771E+0	1.608850E+0	1.574844E+0	1.538912E+0	1.581999E+0	1.607922E+0	1.562426E+0	1.606377E+0	1.539758E+0	1.520624E+0	1.574739E+0	1.579473E+0	1.529977E+0	1.567121E+0	1.547126E+0	1.577715E+0	1.552118E+0	1.574812E+0	1.544352E+0	1.583326E+0	1.604237E+0	1.566383E+0	1.570323E+0	1.574992E+0	1.574296E+0	1.558401E+0	1.561469E+0	1.559893E+0	1.532830E+0	1.597344E+0	1.572296E+0	1.564043E+0	1.612963E+0	1.572212E+0	1.605664E+0	1.574659E+0	1.599363E+0	1.588161E+0	1.576229E+0	1.591642E+0	1.548095E+0	1.630637E+0	1.502824E+0	1.548038E+0	1.601028E+0	1.597123E+0	1.558332E+0	1.533492E+0	1.583002E+0	1.555877E+0	1.549814E+0	1.597569E+0	1.466808E+0	1.576823E+0	1.499322E+0	1.530749E+0	1.565543E+0	1.541340E+0	1.579729E+0	1.585302E+0	1.593363E+0	1.538126E+0	1.578925E+0	1.557122E+0	1.591736E+0	1.528961E+0	1.553943E+0	1.553148E+0	1.537796E+0	1.593624E+0	1.493093E+0	1.554260E+0	1.529804E+0	1.579162E+0	1.487975E+0	1.569593E+0	1.593462E+0	1.486299E+0	1.571443E+0	1.487751E+0	1.584466E+0	1.545576E+0	1.612729E+0	1.632427E+0	1.574640E+0	1.501019E+0
5.442590E+2	1.567848E+0	1.574870E+0	1.665881E+0	1.689700E+0	1.720572E+0	1.667381E+0	1.641276E+0	1.719200E+0	1.610001E+0	1.608864E+0	1.694270E+0	1.585012E+0	1.648329E+0	1.683144E+0	1.689577E+0	1.694225E+0	1.614234E+0	1.702672E+0	1.690167E+0	1.649114E+0	1.647551E+0	1.616259E+0	1.607880E+0	1.640725E+0	1.653774E+0	1.604004E+0	1.616678E+0	1.635159E+0	1.639913E+0	1.644538E+0	1.656743E+0	1.564382E+0	1.653764E+0	1.714977E+0	1.724419E+0	1.618637E+0	1.628436E+0	1.636358E+0	1.616728E+0	1.628040E+0	1.651113E+0	1.700524E+0	1.634230E+0	1.638916E+0	1.649887E+0	1.643420E+0	1.648949E+0	1.601673E+0	1.640662E+0	1.586782E+0	1.586860E+0	1.586145E+0	1.652314E+0	1.601145E+0	1.623807E+0	1.541559E+0	1.621976E+0	1.597911E+0	1.640332E+0	1.621575E+0	1.648048E+0	1.710887E+0	1.635862E+0	1.660284E+0	1.638368E+0	1.611286E+0	1.595013E+0	1.624953E+0	1.569092E+0	1.671096E+0	1.620268E+0	1.652073E+0	1.643956E+0	1.663665E+0	1.638675E+0	1.612799E+0	1.644805E+0	1.684478E+0	1.627098E+0	1.569996E+0	1.586020E+0	1.666719E+0	1.689300E+0	1.639823E+0	1.608655E+0	1.572734E+0	1.664735E+0	1.558790E+0	1.623989E+0	1.569512E+0	1.584424E+0	1.629932E+0	1.633199E+0	1.617181E+0	1.666711E+0	1.591208E+0	1.595976E+0	1.615436E+0	1.640845E+0	1.549330E+0	1.612814E+0	1.610941E+0	1.548511E+0	1.628907E+0	1.581981E+0	1.586705E+0	1.594978E+0	1.595987E+0	1.631440E+0	1.610404E+0	1.622406E+0	1.612467E+0	1.543818E+0	1.599628E+0	1.641745E+0	1.533211E+0	1.573681E+0	1.615847E+0	1.640562E+0	1.594112E+0	1.621069E+0	1.565979E+0	1.607507E+0	1.581913E+0	1.620611E+0	1.617393E+0	1.619856E+0	1.616004E+0	1.595624E+0	1.623111E+0	1.618186E+0	1.566712E+0	1.539775E+0	1.569825E+0	1.625504E+0	1.597660E+0	1.663583E+0	1.626091E+0	1.621968E+0	1.564797E+0	1.594715E+0	1.647457E+0	1.671145E+0	1.609364E+0	1.677666E+0	1.656367E+0	1.537807E+0	1.642976E+0	1.591211E+0	1.627490E+0	1.551733E+0	1.550102E+0	1.565407E+0	1.636118E+0	1.524501E+0	1.540786E+0	1.662607E+0	1.588178E+0	1.598999E+0	1.497566E+0	1.538812E+0	1.600894E+0	1.568071E+0	1.578884E+0	1.574576E+0	1.606879E+0	1.624404E+0	1.577464E+0	1.657451E+0	1.507001E+0	1.581484E+0
5.445180E+2	1.636328E+0	1.589476E+0	1.646594E+0	1.628311E+0	1.559850E+0	1.613266E+0	1.593167E+0	1.586952E+0	1.574190E+0	1.567696E+0	1.617259E+0	1.484935E+0	1.599908E+0	1.611001E+0	1.622490E+0	1.593332E+0	1.540553E+0	1.571493E+0	1.600826E+0	1.616575E+0	1.623377E+0	1.596208E+0	1.614337E+0	1.587570E+0	1.606583E+0	1.594509E+0	1.581056E+0	1.530121E+0	1.563722E+0	1.611851E+0	1.575024E+0	1.562564E+0	1.575115E+0	1.620584E+0	1.597956E+0	1.558375E+0	1.605148E+0	1.513427E+0	1.594300E+0	1.646384E+0	1.647453E+0	1.658248E+0	1.598125E+0	1.577522E+0	1.600855E+0	1.631357E+0	1.602721E+0	1.542032E+0	1.560959E+0	1.602627E+0	1.605034E+0	1.470203E+0	1.537709E+0	1.594653E+0	1.605093E+0	1.566331E+0	1.593554E+0	1.552907E+0	1.554178E+0	1.566841E+0	1.457599E+0	1.690193E+0	1.620513E+0	1.548435E+0	1.622328E+0	1.568463E+0	1.591408E+0	1.575416E+0	1.569711E+0	1.589327E+0	1.587748E+0	1.564177E+0	1.612480E+0	1.552682E+0	1.569348E+0	1.574504E+0	1.547959E+0	1.570223E+0	1.541743E+0	1.555276E+0	1.588679E+0	1.594716E+0	1.545844E+0	1.500486E+0	1.560143E+0	1.507381E+0	1.556175E+0	1.605020E+0	1.539143E+0	1.599630E+0	1.578385E+0	1.568090E+0	1.649585E+0	1.559031E+0	1.582051E+0	1.576578E+0	1.608712E+0	1.603120E+0	1.610826E+0	1.647902E+0	1.609158E+0	1.636230E+0	1.594695E+0	1.567574E+0	1.561332E+0	1.541193E+0	1.574687E+0	1.539317E+0	1.541695E+0	1.612781E+0	1.608376E+0	1.506410E+0	1.479263E+0	1.579609E+0	1.602127E+0	1.557735E+0	1.536206E+0	1.528047E+0	1.546260E+0	1.520580E+0	1.546881E+0	1.549233E+0	1.595046E+0	1.546142E+0	1.591708E+0	1.519776E+0	1.555312E+0	1.569604E+0	1.550647E+0	1.554044E+0	1.577543E+0	1.569021E+0	1.532326E+0	1.626968E+0	1.514760E+0	1.557837E+0	1.577510E+0	1.559154E+0	1.506203E+0	1.563192E+0	1.526184E+0	1.542754E+0	1.555908E+0	1.582976E+0	1.599121E+0	1.632670E+0	1.544737E+0	1.564316E+0	1.561481E+0	1.613675E+0	1.561683E+0	1.562223E+0	1.633935E+0	1.574696E+0	1.549881E+0	1.531503E+0	1.589485E+0	1.569348E+0	1.624440E+0	1.552514E+0	1.558577E+0	1.609942E+0	1.484950E+0	1.526475E+0	1.556320E+0	1.501823E+0	1.555044E+0	1.578380E+0	1.619497E+0	1.496656E+0	1.585960E+0
5.447610E+2	1.480195E+0	1.495523E+0	1.423482E+0	1.458594E+0	1.467177E+0	1.447340E+0	1.423495E+0	1.534482E+0	1.476216E+0	1.452095E+0	1.437046E+0	1.404464E+0	1.457904E+0	1.475982E+0	1.481431E+0	1.450989E+0	1.489909E+0	1.489394E+0	1.446209E+0	1.458478E+0	1.485870E+0	1.414532E+0	1.398547E+0	1.455692E+0	1.546379E+0	1.416063E+0	1.437020E+0	1.396908E+0	1.434080E+0	1.401141E+0	1.449830E+0	1.448237E+0	1.474418E+0	1.526523E+0	1.489781E+0	1.424443E+0	1.544764E+0	1.412163E+0	1.476625E+0	1.456475E+0	1.482512E+0	1.454888E+0	1.499851E+0	1.487124E+0	1.479739E+0	1.512349E+0	1.472636E+0	1.421752E+0	1.480916E+0	1.498763E+0	1.475091E+0	1.397903E+0	1.425807E+0	1.420848E+0	1.471902E+0	1.431247E+0	1.461757E+0	1.459692E+0	1.411997E+0	1.514429E+0	1.489787E+0	1.505905E+0	1.455996E+0	1.427569E+0	1.548414E+0	1.430141E+0	1.439789E+0	1.442125E+0	1.520536E+0	1.493346E+0	1.504118E+0	1.444195E+0	1.446026E+0	1.485805E+0	1.444374E+0	1.429674E+0	1.459298E+0	1.485250E+0	1.417546E+0	1.390863E+0	1.363342E+0	1.437193E+0	1.481692E+0	1.455551E+0	1.473583E+0	1.431211E+0	1.415675E+0	1.482145E+0	1.419467E+0	1.431126E+0	1.465243E+0	1.475747E+0	1.451659E+0	1.457779E+0	1.507742E+0	1.476612E+0	1.457079E+0	1.497413E+0	1.435813E+0	1.427501E+0	1.441869E+0	1.437533E+0	1.398799E+0	1.446304E+0	1.414944E+0	1.427212E+0	1.431687E+0	1.433283E+0	1.385811E+0	1.540897E+0	1.496228E+0	1.437924E+0	1.417878E+0	1.487480E+0	1.501671E+0	1.521109E+0	1.457689E+0	1.476761E+0	1.471754E+0	1.443422E+0	1.439787E+0	1.429876E+0	1.507798E+0	1.409056E+0	1.484146E+0	1.495404E+0	1.464057E+0	1.405795E+0	1.405796E+0	1.455472E+0	1.456691E+0	1.508988E+0	1.465341E+0	1.468634E+0	1.470381E+0	1.417640E+0	1.462826E+0	1.427573E+0	1.427043E+0	1.434490E+0	1.465881E+0	1.432968E+0	1.438147E+0	1.550401E+0	1.514244E+0	1.496336E+0	1.418447E+0	1.402593E+0	1.408421E+0	1.464763E+0	1.407368E+0	1.382234E+0	1.445536E+0	1.435182E+0	1.384098E+0	1.433573E+0	1.509657E+0	1.416123E+0	1.454444E+0	1.325056E+0	1.464376E+0	1.400796E+0	1.387177E+0	1.379750E+0	1.396331E+0	1.424812E+0	1.454711E+0	1.397843E+0	1.452924E+0	1.465068E+0	1.478207E+0
5.450090E+2	1.398073E+0	1.414359E+0	1.437996E+0	1.433265E+0	1.458882E+0	1.414352E+0	1.458473E+0	1.450828E+0	1.474818E+0	1.456722E+0	1.433345E+0	1.430695E+0	1.447422E+0	1.491895E+0	1.465192E+0	1.442733E+0	1.424536E+0	1.459625E+0	1.435349E+0	1.386406E+0	1.485922E+0	1.405765E+0	1.450699E+0	1.411972E+0	1.463072E+0	1.467333E+0	1.406233E+0	1.383027E+0	1.423238E+0	1.371574E+0	1.421300E+0	1.400206E+0	1.488420E+0	1.432662E+0	1.546221E+0	1.444890E+0	1.491150E+0	1.408922E+0	1.403100E+0	1.417899E+0	1.407082E+0	1.479381E+0	1.405029E+0	1.406927E+0	1.561816E+0	1.462124E+0	1.441551E+0	1.439978E+0	1.432527E+0	1.393277E+0	1.469543E+0	1.391711E+0	1.406552E+0	1.464616E+0	1.453020E+0	1.453428E+0	1.431109E+0	1.425537E+0	1.376850E+0	1.399515E+0	1.417121E+0	1.510654E+0	1.438699E+0	1.491781E+0	1.432216E+0	1.427217E+0	1.441536E+0	1.389211E+0	1.448205E+0	1.468798E+0	1.459644E+0	1.455010E+0	1.491980E+0	1.477005E+0	1.445707E+0	1.396326E+0	1.437921E+0	1.462322E+0	1.434351E+0	1.395055E+0	1.440759E+0	1.420225E+0	1.443649E+0	1.377039E+0	1.402793E+0	1.374966E+0	1.450893E+0	1.427654E+0	1.412629E+0	1.405056E+0	1.441660E+0	1.427952E+0	1.446815E+0	1.447851E+0	1.435348E+0	1.382586E+0	1.425898E+0	1.387029E+0	1.490317E+0	1.401719E+0	1.415543E+0	1.483222E+0	1.366266E+0	1.432108E+0	1.398987E+0	1.387511E+0	1.360535E+0	1.420706E+0	1.369911E+0	1.450062E+0	1.459985E+0	1.399923E+0	1.419055E+0	1.430892E+0	1.447149E+0	1.394625E+0	1.457883E+0	1.440857E+0	1.461676E+0	1.435556E+0	1.373294E+0	1.362470E+0	1.460203E+0	1.365975E+0	1.439719E+0	1.411789E+0	1.412420E+0	1.392680E+0	1.456121E+0	1.431781E+0	1.462329E+0	1.393767E+0	1.429091E+0	1.481907E+0	1.324740E+0	1.389160E+0	1.482399E+0	1.398446E+0	1.417417E+0	1.363049E+0	1.369559E+0	1.478774E+0	1.441882E+0	1.448926E+0	1.436129E+0	1.466495E+0	1.373181E+0	1.383114E+0	1.406404E+0	1.447115E+0	1.380623E+0	1.371862E+0	1.466489E+0	1.409555E+0	1.430405E+0	1.422654E+0	1.449099E+0	1.416306E+0	1.509025E+0	1.361107E+0	1.422045E+0	1.456324E+0	1.452020E+0	1.349937E+0	1.386353E+0	1.421251E+0	1.491426E+0	1.445989E+0	1.410003E+0	1.380671E+0	1.389767E+0
5.452640E+2	1.315275E+0	1.340697E+0	1.307167E+0	1.336813E+0	1.318694E+0	1.340446E+0	1.330822E+0	1.387530E+0	1.324161E+0	1.354267E+0	1.364187E+0	1.340077E+0	1.319052E+0	1.345727E+0	1.361590E+0	1.291348E+0	1.399069E+0	1.344472E+0	1.345747E+0	1.343898E+0	1.370167E+0	1.360803E+0	1.320838E+0	1.313298E+0	1.414371E+0	1.389133E+0	1.317145E+0	1.331195E+0	1.293060E+0	1.320969E+0	1.336896E+0	1.292627E+0	1.331736E+0	1.320091E+0	1.386487E+0	1.384173E+0	1.378248E+0	1.372750E+0	1.335222E+0	1.389204E+0	1.283659E+0	1.384856E+0	1.352048E+0	1.335623E+0	1.375162E+0	1.307951E+0	1.380434E+0	1.299309E+0	1.375422E+0	1.289100E+0	1.345652E+0	1.291312E+0	1.405890E+0	1.346427E+0	1.374123E+0	1.327629E+0	1.339291E+0	1.333751E+0	1.382889E+0	1.324816E+0	1.347194E+0	1.392133E+0	1.319333E+0	1.334639E+0	1.342787E+0	1.357609E+0	1.370582E+0	1.307693E+0	1.374797E+0	1.363379E+0	1.339487E+0	1.317618E+0	1.320881E+0	1.376077E+0	1.333266E+0	1.336376E+0	1.331621E+0	1.342110E+0	1.347349E+0	1.272991E+0	1.288266E+0	1.371782E+0	1.292001E+0	1.284419E+0	1.377732E+0	1.336144E+0	1.391601E+0	1.386028E+0	1.335876E+0	1.360791E+0	1.295575E+0	1.342133E+0	1.313417E+0	1.359530E+0	1.409382E+0	1.341250E+0	1.331802E+0	1.355904E+0	1.349805E+0	1.261557E+0	1.343998E+0	1.238970E+0	1.335951E+0	1.334247E+0	1.335461E+0	1.290382E+0	1.372439E+0	1.319727E+0	1.337935E+0	1.324208E+0	1.387820E+0	1.333713E+0	1.225269E+0	1.327617E+0	1.352006E+0	1.356355E+0	1.347050E+0	1.347227E+0	1.318928E+0	1.380632E+0	1.261713E+0	1.278966E+0	1.404793E+0	1.329482E+0	1.311716E+0	1.297520E+0	1.353451E+0	1.278149E+0	1.326954E+0	1.315262E+0	1.404603E+0	1.312484E+0	1.315406E+0	1.340989E+0	1.324304E+0	1.334700E+0	1.372688E+0	1.386451E+0	1.292190E+0	1.291562E+0	1.263222E+0	1.290725E+0	1.310961E+0	1.349883E+0	1.326704E+0	1.401161E+0	1.311068E+0	1.275454E+0	1.383143E+0	1.401604E+0	1.330157E+0	1.313907E+0	1.321262E+0	1.367924E+0	1.338001E+0	1.366511E+0	1.321803E+0	1.268568E+0	1.313070E+0	1.221111E+0	1.308545E+0	1.330289E+0	1.325675E+0	1.327915E+0	1.299283E+0	1.336691E+0	1.334049E+0	1.334479E+0	1.374560E+0	1.333716E+0	1.358633E+0
5.455290E+2	1.294448E+0	1.240813E+0	1.343773E+0	1.290414E+0	1.224200E+0	1.307738E+0	1.325388E+0	1.304736E+0	1.302995E+0	1.295216E+0	1.325169E+0	1.225353E+0	1.286218E+0	1.270255E+0	1.323156E+0	1.314370E+0	1.360420E+0	1.319808E+0	1.266057E+0	1.285700E+0	1.324257E+0	1.314353E+0	1.353454E+0	1.273114E+0	1.383051E+0	1.277719E+0	1.225113E+0	1.275349E+0	1.327184E+0	1.274178E+0	1.319227E+0	1.245839E+0	1.274295E+0	1.368905E+0	1.289413E+0	1.237001E+0	1.365920E+0	1.293034E+0	1.258280E+0	1.340446E+0	1.331995E+0	1.318482E+0	1.260114E+0	1.280628E+0	1.331123E+0	1.302204E+0	1.369247E+0	1.320739E+0	1.305606E+0	1.279119E+0	1.313340E+0	1.290221E+0	1.299689E+0	1.314286E+0	1.337336E+0	1.311001E+0	1.262965E+0	1.282666E+0	1.317697E+0	1.268338E+0	1.256416E+0	1.279847E+0	1.325176E+0	1.342026E+0	1.311496E+0	1.333825E+0	1.245673E+0	1.299489E+0	1.327585E+0	1.355011E+0	1.303434E+0	1.307388E+0	1.345215E+0	1.301233E+0	1.306497E+0	1.341597E+0	1.291846E+0	1.358292E+0	1.325689E+0	1.279836E+0	1.340252E+0	1.262517E+0	1.310520E+0	1.250482E+0	1.307044E+0	1.242784E+0	1.319380E+0	1.355841E+0	1.283679E+0	1.308755E+0	1.217044E+0	1.273930E+0	1.291017E+0	1.252520E+0	1.274568E+0	1.341098E+0	1.343953E+0	1.325864E+0	1.340988E+0	1.276188E+0	1.313909E+0	1.251325E+0	1.270435E+0	1.340395E+0	1.311288E+0	1.297594E+0	1.329580E+0	1.279654E+0	1.330522E+0	1.341518E+0	1.302575E+0	1.305304E+0	1.280330E+0	1.335730E+0	1.261125E+0	1.255206E+0	1.263645E+0	1.333174E+0	1.297850E+0	1.292468E+0	1.292146E+0	1.234572E+0	1.259680E+0	1.298617E+0	1.318547E+0	1.336634E+0	1.284238E+0	1.293654E+0	1.310318E+0	1.316997E+0	1.254439E+0	1.263732E+0	1.219833E+0	1.300046E+0	1.256436E+0	1.290565E+0	1.283639E+0	1.273129E+0	1.281761E+0	1.268043E+0	1.290636E+0	1.307784E+0	1.213477E+0	1.421234E+0	1.251550E+0	1.329251E+0	1.239667E+0	1.306881E+0	1.324117E+0	1.271046E+0	1.233130E+0	1.243060E+0	1.232223E+0	1.292129E+0	1.314634E+0	1.319168E+0	1.286637E+0	1.280026E+0	1.290958E+0	1.279306E+0	1.277409E+0	1.270260E+0	1.337850E+0	1.302882E+0	1.253147E+0	1.282902E+0	1.308213E+0	1.281652E+0	1.271392E+0	1.300142E+0	1.169671E+0
5.457670E+2	1.130070E+0	1.174643E+0	1.190306E+0	1.162424E+0	1.197094E+0	1.166473E+0	1.117447E+0	1.164868E+0	1.155120E+0	1.135754E+0	1.164714E+0	1.142432E+0	1.137528E+0	1.224514E+0	1.152075E+0	1.171137E+0	1.168508E+0	1.182378E+0	1.219789E+0	1.234708E+0	1.162757E+0	1.147045E+0	1.155012E+0	1.112450E+0	1.189215E+0	1.178228E+0	1.168142E+0	1.148333E+0	1.134572E+0	1.109956E+0	1.215494E+0	1.145272E+0	1.191352E+0	1.161367E+0	1.177059E+0	1.196956E+0	1.183479E+0	1.243609E+0	1.189646E+0	1.183040E+0	1.189088E+0	1.143203E+0	1.188817E+0	1.180381E+0	1.166450E+0	1.175524E+0	1.177615E+0	1.090175E+0	1.193892E+0	1.138532E+0	1.103379E+0	1.192696E+0	1.108807E+0	1.156172E+0	1.160630E+0	1.164862E+0	1.196002E+0	1.184074E+0	1.092532E+0	1.195271E+0	1.138329E+0	1.213958E+0	1.176526E+0	1.237372E+0	1.120976E+0	1.139749E+0	1.175452E+0	1.222560E+0	1.150189E+0	1.182952E+0	1.175960E+0	1.090288E+0	1.201512E+0	1.230619E+0	1.175109E+0	1.147271E+0	1.208933E+0	1.214737E+0	1.204098E+0	1.135165E+0	1.194624E+0	1.199977E+0	1.165504E+0	1.120228E+0	1.127511E+0	1.128591E+0	1.204228E+0	1.177114E+0	1.140162E+0	1.170085E+0	1.185978E+0	1.156606E+0	1.157751E+0	1.192162E+0	1.182964E+0	1.113493E+0	1.170716E+0	1.193784E+0	1.144094E+0	1.138134E+0	1.158746E+0	1.152475E+0	1.147485E+0	1.208345E+0	1.170515E+0	1.166828E+0	1.140355E+0	1.142026E+0	1.179471E+0	1.198666E+0	1.183792E+0	1.159861E+0	1.073593E+0	1.114338E+0	1.213331E+0	1.171328E+0	1.133252E+0	1.161955E+0	1.234172E+0	1.143885E+0	1.170692E+0	1.171551E+0	1.170902E+0	1.159969E+0	1.197713E+0	1.203477E+0	1.221030E+0	1.152861E+0	1.200724E+0	1.182329E+0	1.109883E+0	1.186206E+0	1.195006E+0	1.239374E+0	1.136344E+0	1.168229E+0	1.143824E+0	1.168861E+0	1.131939E+0	1.127418E+0	1.118620E+0	1.161907E+0	1.180332E+0	1.185959E+0	1.172025E+0	1.243590E+0	1.151543E+0	1.187804E+0	1.170194E+0	1.183710E+0	1.138154E+0	1.158136E+0	1.163518E+0	1.181121E+0	1.123333E+0	1.147382E+0	1.158060E+0	1.143484E+0	1.245205E+0	1.088352E+0	1.094790E+0	1.167047E+0	1.130044E+0	1.153556E+0	1.103475E+0	1.130157E+0	1.153387E+0	1.131323E+0	1.157879E+0	1.155672E+0	1.137428E+0
5.460110E+2	1.143452E+0	1.167169E+0	1.201328E+0	1.150849E+0	1.139030E+0	1.173980E+0	1.171821E+0	1.202637E+0	1.162410E+0	1.174195E+0	1.179833E+0	1.177376E+0	1.156993E+0	1.145676E+0	1.189426E+0	1.156139E+0	1.124519E+0	1.180512E+0	1.231267E+0	1.124747E+0	1.139005E+0	1.193876E+0	1.114874E+0	1.169909E+0	1.192669E+0	1.185493E+0	1.137708E+0	1.187294E+0	1.151122E+0	1.192698E+0	1.190241E+0	1.114690E+0	1.187439E+0	1.174786E+0	1.160305E+0	1.110776E+0	1.195717E+0	1.160876E+0	1.163333E+0	1.260455E+0	1.232908E+0	1.160337E+0	1.162570E+0	1.193074E+0	1.232046E+0	1.216804E+0	1.180331E+0	1.126351E+0	1.183803E+0	1.191635E+0	1.161614E+0	1.171737E+0	1.168101E+0	1.173954E+0	1.222219E+0	1.129311E+0	1.156946E+0	1.128204E+0	1.153990E+0	1.184494E+0	1.145614E+0	1.191517E+0	1.212039E+0	1.162783E+0	1.150845E+0	1.131831E+0	1.204605E+0	1.190582E+0	1.151401E+0	1.210630E+0	1.159736E+0	1.204025E+0	1.208745E+0	1.180773E+0	1.134923E+0	1.144128E+0	1.153403E+0	1.171049E+0	1.176909E+0	1.144299E+0	1.141714E+0	1.135149E+0	1.234906E+0	1.169687E+0	1.165573E+0	1.095600E+0	1.180424E+0	1.122176E+0	1.149585E+0	1.093157E+0	1.184086E+0	1.158628E+0	1.159545E+0	1.162676E+0	1.132233E+0	1.150188E+0	1.224237E+0	1.213026E+0	1.209759E+0	1.179302E+0	1.185773E+0	1.207661E+0	1.134419E+0	1.201398E+0	1.145969E+0	1.169522E+0	1.168938E+0	1.167083E+0	1.122009E+0	1.157678E+0	1.211365E+0	1.205311E+0	1.125378E+0	1.194471E+0	1.275627E+0	1.148959E+0	1.161248E+0	1.174242E+0	1.188592E+0	1.146958E+0	1.146062E+0	1.178870E+0	1.197546E+0	1.126339E+0	1.141672E+0	1.171036E+0	1.186078E+0	1.104721E+0	1.145124E+0	1.180562E+0	1.207769E+0	1.136714E+0	1.158619E+0	1.183156E+0	1.119162E+0	1.098141E+0	1.182286E+0	1.139171E+0	1.208699E+0	1.125086E+0	1.164024E+0	1.164853E+0	1.122395E+0	1.183191E+0	1.242908E+0	1.229264E+0	1.146487E+0	1.153456E+0	1.151631E+0	1.205079E+0	1.164068E+0	1.142934E+0	1.171203E+0	1.205144E+0	1.180914E+0	1.152276E+0	1.103476E+0	1.172172E+0	1.179978E+0	1.136574E+0	1.131690E+0	1.177249E+0	1.100631E+0	1.146459E+0	1.206419E+0	1.183665E+0	1.206801E+0	1.185455E+0	1.226152E+0	1.200761E+0	1.096142E+0
5.467660E+2	1.239525E+0	1.207097E+0	1.242614E+0	1.256137E+0	1.255451E+0	1.268024E+0	1.283102E+0	1.205146E+0	1.220007E+0	1.229667E+0	1.272391E+0	1.225755E+0	1.234481E+0	1.223129E+0	1.224375E+0	1.211742E+0	1.209420E+0	1.287568E+0	1.269187E+0	1.261205E+0	1.246747E+0	1.155821E+0	1.167103E+0	1.214921E+0	1.258393E+0	1.232496E+0	1.201696E+0	1.234990E+0	1.230640E+0	1.193850E+0	1.228964E+0	1.232837E+0	1.210273E+0	1.226990E+0	1.284335E+0	1.199536E+0	1.267446E+0	1.219457E+0	1.262759E+0	1.265987E+0	1.222044E+0	1.265128E+0	1.226825E+0	1.214954E+0	1.200718E+0	1.216683E+0	1.296821E+0	1.219929E+0	1.212775E+0	1.268075E+0	1.244461E+0	1.167035E+0	1.207317E+0	1.239161E+0	1.222616E+0	1.231747E+0	1.223152E+0	1.265710E+0	1.214291E+0	1.227991E+0	1.210561E+0	1.288576E+0	1.291327E+0	1.203828E+0	1.241541E+0	1.233114E+0	1.270873E+0	1.268739E+0	1.276657E+0	1.268304E+0	1.252723E+0	1.221531E+0	1.247880E+0	1.259285E+0	1.281705E+0	1.165941E+0	1.233271E+0	1.236147E+0	1.228530E+0	1.268409E+0	1.198132E+0	1.232536E+0	1.264642E+0	1.234498E+0	1.284540E+0	1.196873E+0	1.266625E+0	1.248131E+0	1.228183E+0	1.251208E+0	1.212055E+0	1.217364E+0	1.287772E+0	1.296458E+0	1.244793E+0	1.228054E+0	1.252877E+0	1.240231E+0	1.225457E+0	1.167322E+0	1.242174E+0	1.277202E+0	1.202834E+0	1.233759E+0	1.200123E+0	1.221243E+0	1.196863E+0	1.241953E+0	1.195272E+0	1.299381E+0	1.232325E+0	1.226650E+0	1.188626E+0	1.204813E+0	1.248550E+0	1.252671E+0	1.244979E+0	1.318059E+0	1.159361E+0	1.255461E+0	1.259407E+0	1.280574E+0	1.254125E+0	1.212410E+0	1.230153E+0	1.225793E+0	1.235319E+0	1.225638E+0	1.218432E+0	1.204496E+0	1.239772E+0	1.251610E+0	1.259180E+0	1.259617E+0	1.218358E+0	1.219401E+0	1.306624E+0	1.233863E+0	1.144467E+0	1.198803E+0	1.259458E+0	1.219628E+0	1.248786E+0	1.294814E+0	1.270643E+0	1.259271E+0	1.219803E+0	1.195160E+0	1.160353E+0	1.214058E+0	1.219943E+0	1.171327E+0	1.188647E+0	1.235728E+0	1.250118E+0	1.245770E+0	1.206169E+0	1.288169E+0	1.250090E+0	1.174001E+0	1.166157E+0	1.217951E+0	1.173013E+0	1.154597E+0	1.210004E+0	1.252586E+0	1.223921E+0	1.231718E+0	1.244287E+0	1.267490E+0	1.224695E+0
5.475180E+2	1.325934E+0	1.300704E+0	1.314480E+0	1.338524E+0	1.316293E+0	1.335857E+0	1.253356E+0	1.324880E+0	1.301970E+0	1.251049E+0	1.290319E+0	1.292872E+0	1.336289E+0	1.262459E+0	1.335541E+0	1.281428E+0	1.320184E+0	1.277132E+0	1.303217E+0	1.313173E+0	1.353709E+0	1.236646E+0	1.312351E+0	1.249524E+0	1.309638E+0	1.251858E+0	1.259039E+0	1.237520E+0	1.311195E+0	1.210749E+0	1.364270E+0	1.220917E+0	1.303115E+0	1.270979E+0	1.318310E+0	1.285083E+0	1.334266E+0	1.310377E+0	1.406629E+0	1.311971E+0	1.357806E+0	1.334452E+0	1.250902E+0	1.322787E+0	1.313003E+0	1.372244E+0	1.294307E+0	1.271421E+0	1.262276E+0	1.282157E+0	1.266354E+0	1.268424E+0	1.269958E+0	1.338901E+0	1.242392E+0	1.255481E+0	1.265852E+0	1.377866E+0	1.274900E+0	1.299086E+0	1.254713E+0	1.336154E+0	1.381765E+0	1.364673E+0	1.297040E+0	1.269910E+0	1.333345E+0	1.281143E+0	1.232333E+0	1.317097E+0	1.294573E+0	1.261688E+0	1.291509E+0	1.291190E+0	1.296622E+0	1.232386E+0	1.285899E+0	1.282353E+0	1.283323E+0	1.217291E+0	1.342905E+0	1.297695E+0	1.331411E+0	1.246096E+0	1.304721E+0	1.264855E+0	1.309095E+0	1.309704E+0	1.259743E+0	1.321032E+0	1.254459E+0	1.299763E+0	1.269380E+0	1.315962E+0	1.343470E+0	1.239280E+0	1.325775E+0	1.291769E+0	1.255613E+0	1.238143E+0	1.354431E+0	1.318975E+0	1.252034E+0	1.343469E+0	1.332416E+0	1.314388E+0	1.298376E+0	1.263112E+0	1.330857E+0	1.332645E+0	1.327948E+0	1.270207E+0	1.231248E+0	1.256057E+0	1.342130E+0	1.345507E+0	1.245373E+0	1.294335E+0	1.321738E+0	1.286697E+0	1.271255E+0	1.275945E+0	1.302129E+0	1.238370E+0	1.273329E+0	1.302081E+0	1.297752E+0	1.240987E+0	1.257398E+0	1.292271E+0	1.259070E+0	1.258104E+0	1.259045E+0	1.270365E+0	1.272652E+0	1.275123E+0	1.289090E+0	1.263307E+0	1.283941E+0	1.238302E+0	1.292483E+0	1.288401E+0	1.299285E+0	1.356006E+0	1.241867E+0	1.359718E+0	1.299955E+0	1.247628E+0	1.251516E+0	1.257685E+0	1.279113E+0	1.307091E+0	1.260040E+0	1.331660E+0	1.298650E+0	1.292504E+0	1.251677E+0	1.283643E+0	1.269997E+0	1.236998E+0	1.272197E+0	1.254195E+0	1.272804E+0	1.279074E+0	1.286852E+0	1.259890E+0	1.315107E+0	1.236522E+0	1.270978E+0	1.251789E+0	1.262548E+0
5.482600E+2	1.427308E+0	1.391780E+0	1.378092E+0	1.403436E+0	1.422607E+0	1.337989E+0	1.477602E+0	1.423366E+0	1.354797E+0	1.415526E+0	1.345268E+0	1.413711E+0	1.431977E+0	1.401117E+0	1.434655E+0	1.440556E+0	1.454988E+0	1.385316E+0	1.373486E+0	1.475440E+0	1.396779E+0	1.359018E+0	1.374901E+0	1.355864E+0	1.420596E+0	1.409068E+0	1.436087E+0	1.325966E+0	1.429990E+0	1.358999E+0	1.386741E+0	1.388982E+0	1.428933E+0	1.386894E+0	1.416462E+0	1.379019E+0	1.400630E+0	1.389953E+0	1.374363E+0	1.375092E+0	1.456797E+0	1.394766E+0	1.381865E+0	1.390569E+0	1.399143E+0	1.415828E+0	1.405141E+0	1.348308E+0	1.401234E+0	1.376386E+0	1.354166E+0	1.351348E+0	1.387356E+0	1.413155E+0	1.428268E+0	1.326619E+0	1.326951E+0	1.399443E+0	1.309287E+0	1.368745E+0	1.350202E+0	1.422997E+0	1.435843E+0	1.355053E+0	1.376465E+0	1.427942E+0	1.406827E+0	1.418893E+0	1.401796E+0	1.423480E+0	1.353997E+0	1.412745E+0	1.403497E+0	1.363624E+0	1.381902E+0	1.384922E+0	1.404021E+0	1.428828E+0	1.396443E+0	1.364939E+0	1.433209E+0	1.409188E+0	1.362142E+0	1.347287E+0	1.461133E+0	1.387571E+0	1.393008E+0	1.430729E+0	1.333780E+0	1.418207E+0	1.388742E+0	1.328493E+0	1.398174E+0	1.430967E+0	1.418607E+0	1.369129E+0	1.366191E+0	1.412006E+0	1.437348E+0	1.353574E+0	1.392847E+0	1.412021E+0	1.373151E+0	1.408069E+0	1.360946E+0	1.377013E+0	1.443265E+0	1.376950E+0	1.395984E+0	1.467429E+0	1.389281E+0	1.335435E+0	1.331385E+0	1.352062E+0	1.370611E+0	1.407909E+0	1.348089E+0	1.408619E+0	1.412319E+0	1.356133E+0	1.366471E+0	1.379832E+0	1.411035E+0	1.332094E+0	1.400100E+0	1.346944E+0	1.395387E+0	1.383125E+0	1.372845E+0	1.387071E+0	1.428644E+0	1.424723E+0	1.373766E+0	1.361560E+0	1.380469E+0	1.333250E+0	1.404320E+0	1.406585E+0	1.371371E+0	1.336120E+0	1.346992E+0	1.359256E+0	1.381526E+0	1.445920E+0	1.451303E+0	1.493936E+0	1.316888E+0	1.359065E+0	1.369887E+0	1.438074E+0	1.370802E+0	1.417585E+0	1.363671E+0	1.412458E+0	1.390269E+0	1.343243E+0	1.356379E+0	1.390087E+0	1.433499E+0	1.319346E+0	1.377023E+0	1.362081E+0	1.389446E+0	1.344031E+0	1.409257E+0	1.396582E+0	1.444523E+0	1.378023E+0	1.400242E+0	1.373131E+0	1.392864E+0
5.490100E+2	1.310187E+0	1.297625E+0	1.318765E+0	1.302783E+0	1.357145E+0	1.347524E+0	1.314256E+0	1.342464E+0	1.281054E+0	1.290765E+0	1.382671E+0	1.262082E+0	1.323100E+0	1.347596E+0	1.330474E+0	1.312037E+0	1.302106E+0	1.297835E+0	1.316664E+0	1.318909E+0	1.298556E+0	1.239137E+0	1.271200E+0	1.316747E+0	1.368636E+0	1.304048E+0	1.313682E+0	1.309180E+0	1.257619E+0	1.261310E+0	1.332069E+0	1.312062E+0	1.328813E+0	1.284008E+0	1.342244E+0	1.253678E+0	1.360016E+0	1.312672E+0	1.291581E+0	1.334458E+0	1.340233E+0	1.303645E+0	1.346734E+0	1.306617E+0	1.345570E+0	1.338463E+0	1.366741E+0	1.269431E+0	1.305683E+0	1.322006E+0	1.305350E+0	1.280184E+0	1.305970E+0	1.280232E+0	1.362373E+0	1.261116E+0	1.301298E+0	1.282804E+0	1.290684E+0	1.292983E+0	1.341975E+0	1.307235E+0	1.325704E+0	1.280945E+0	1.319605E+0	1.239469E+0	1.359452E+0	1.347288E+0	1.320347E+0	1.289134E+0	1.278310E+0	1.298513E+0	1.288976E+0	1.312921E+0	1.337845E+0	1.291418E+0	1.323395E+0	1.305109E+0	1.334498E+0	1.246121E+0	1.290731E+0	1.342460E+0	1.328379E+0	1.250005E+0	1.351046E+0	1.292553E+0	1.329734E+0	1.382250E+0	1.303873E+0	1.316334E+0	1.335851E+0	1.274683E+0	1.259989E+0	1.361381E+0	1.311061E+0	1.276680E+0	1.332232E+0	1.342777E+0	1.281896E+0	1.259825E+0	1.304753E+0	1.283040E+0	1.272486E+0	1.325025E+0	1.317019E+0	1.294665E+0	1.297107E+0	1.297714E+0	1.229528E+0	1.334218E+0	1.340248E+0	1.269702E+0	1.238918E+0	1.314361E+0	1.350116E+0	1.310237E+0	1.314557E+0	1.346835E+0	1.293811E+0	1.290641E+0	1.268164E+0	1.337975E+0	1.305554E+0	1.271257E+0	1.332684E+0	1.334275E+0	1.344150E+0	1.248987E+0	1.302938E+0	1.301873E+0	1.281664E+0	1.308175E+0	1.316853E+0	1.315110E+0	1.300226E+0	1.302782E+0	1.342042E+0	1.306636E+0	1.243598E+0	1.219051E+0	1.319505E+0	1.344611E+0	1.309060E+0	1.326171E+0	1.280219E+0	1.363952E+0	1.265272E+0	1.306345E+0	1.362337E+0	1.335592E+0	1.302198E+0	1.239392E+0	1.280262E+0	1.367501E+0	1.298569E+0	1.303330E+0	1.305010E+0	1.255331E+0	1.355321E+0	1.228475E+0	1.327890E+0	1.269918E+0	1.338238E+0	1.349495E+0	1.310382E+0	1.273188E+0	1.329287E+0	1.286485E+0	1.294688E+0	1.296647E+0	1.294793E+0
5.497740E+2	1.302637E+0	1.270466E+0	1.341155E+0	1.288637E+0	1.294570E+0	1.352160E+0	1.355250E+0	1.277431E+0	1.335672E+0	1.258479E+0	1.303585E+0	1.264993E+0	1.293233E+0	1.308532E+0	1.296415E+0	1.342046E+0	1.300758E+0	1.285633E+0	1.310981E+0	1.256472E+0	1.390763E+0	1.272906E+0	1.316741E+0	1.286401E+0	1.306592E+0	1.299811E+0	1.226695E+0	1.258188E+0	1.311925E+0	1.313778E+0	1.352852E+0	1.264912E+0	1.328029E+0	1.350441E+0	1.280676E+0	1.304760E+0	1.333925E+0	1.293839E+0	1.300770E+0	1.302827E+0	1.341426E+0	1.376552E+0	1.312657E+0	1.320097E+0	1.362178E+0	1.281618E+0	1.349353E+0	1.295923E+0	1.301721E+0	1.294041E+0	1.329217E+0	1.272794E+0	1.253065E+0	1.227431E+0	1.332238E+0	1.281009E+0	1.253635E+0	1.266025E+0	1.311276E+0	1.223845E+0	1.253400E+0	1.302723E+0	1.311302E+0	1.368056E+0	1.296386E+0	1.269268E+0	1.327577E+0	1.305301E+0	1.338570E+0	1.325837E+0	1.278397E+0	1.269067E+0	1.369813E+0	1.286175E+0	1.297207E+0	1.279712E+0	1.330585E+0	1.284230E+0	1.313329E+0	1.290884E+0	1.305120E+0	1.302662E+0	1.321749E+0	1.282426E+0	1.285016E+0	1.288105E+0	1.292764E+0	1.282517E+0	1.246082E+0	1.328510E+0	1.263984E+0	1.270611E+0	1.325389E+0	1.285282E+0	1.363073E+0	1.232099E+0	1.321806E+0	1.283815E+0	1.353618E+0	1.248248E+0	1.290450E+0	1.262306E+0	1.267784E+0	1.254978E+0	1.250220E+0	1.300155E+0	1.286666E+0	1.248044E+0	1.316133E+0	1.308968E+0	1.362922E+0	1.236898E+0	1.255624E+0	1.260741E+0	1.369170E+0	1.271995E+0	1.299586E+0	1.368144E+0	1.329061E+0	1.330761E+0	1.264790E+0	1.324155E+0	1.304333E+0	1.254479E+0	1.329156E+0	1.274981E+0	1.279707E+0	1.238560E+0	1.263414E+0	1.302279E+0	1.276959E+0	1.346847E+0	1.264343E+0	1.286197E+0	1.244213E+0	1.276633E+0	1.217693E+0	1.239419E+0	1.304977E+0	1.261055E+0	1.229388E+0	1.275549E+0	1.210888E+0	1.329962E+0	1.325100E+0	1.318141E+0	1.275841E+0	1.337037E+0	1.297849E+0	1.367234E+0	1.262131E+0	1.295122E+0	1.225819E+0	1.276002E+0	1.364624E+0	1.295885E+0	1.321044E+0	1.304959E+0	1.318268E+0	1.245052E+0	1.277277E+0	1.280739E+0	1.283290E+0	1.300551E+0	1.247896E+0	1.301182E+0	1.324827E+0	1.292185E+0	1.217131E+0	1.356930E+0	1.282406E+0
5.505060E+2	1.312747E+0	1.305180E+0	1.320025E+0	1.356036E+0	1.334964E+0	1.307157E+0	1.299993E+0	1.339385E+0	1.350405E+0	1.237806E+0	1.345558E+0	1.336166E+0	1.328851E+0	1.354890E+0	1.323227E+0	1.328815E+0	1.296267E+0	1.310249E+0	1.358977E+0	1.340422E+0	1.326750E+0	1.311692E+0	1.344379E+0	1.315906E+0	1.341590E+0	1.315104E+0	1.336000E+0	1.329874E+0	1.297872E+0	1.278437E+0	1.337519E+0	1.328489E+0	1.361857E+0	1.305192E+0	1.363999E+0	1.248485E+0	1.340836E+0	1.300468E+0	1.358707E+0	1.306013E+0	1.347037E+0	1.338675E+0	1.294233E+0	1.315391E+0	1.380114E+0	1.268766E+0	1.364141E+0	1.315268E+0	1.305330E+0	1.290736E+0	1.368922E+0	1.288654E+0	1.337632E+0	1.325080E+0	1.342156E+0	1.318982E+0	1.266501E+0	1.281812E+0	1.293980E+0	1.306214E+0	1.310612E+0	1.338265E+0	1.325870E+0	1.337416E+0	1.281592E+0	1.317755E+0	1.334414E+0	1.271225E+0	1.313896E+0	1.351730E+0	1.381901E+0	1.326668E+0	1.275526E+0	1.308933E+0	1.355166E+0	1.286313E+0	1.329070E+0	1.263094E+0	1.342028E+0	1.318994E+0	1.251194E+0	1.370321E+0	1.350772E+0	1.252081E+0	1.251408E+0	1.257226E+0	1.308136E+0	1.307282E+0	1.305293E+0	1.253797E+0	1.282566E+0	1.340151E+0	1.291132E+0	1.305806E+0	1.326598E+0	1.281735E+0	1.283909E+0	1.316400E+0	1.288049E+0	1.284875E+0	1.288363E+0	1.263876E+0	1.331113E+0	1.351182E+0	1.315850E+0	1.231763E+0	1.342814E+0	1.331785E+0	1.324884E+0	1.316801E+0	1.355902E+0	1.297701E+0	1.262554E+0	1.359521E+0	1.301966E+0	1.320119E+0	1.265672E+0	1.240854E+0	1.226142E+0	1.262072E+0	1.294196E+0	1.239099E+0	1.337737E+0	1.263948E+0	1.290036E+0	1.313008E+0	1.302388E+0	1.275427E+0	1.262219E+0	1.380421E+0	1.306576E+0	1.310441E+0	1.265852E+0	1.307798E+0	1.267397E+0	1.292349E+0	1.330956E+0	1.324732E+0	1.269468E+0	1.305285E+0	1.297977E+0	1.355986E+0	1.220325E+0	1.313187E+0	1.314278E+0	1.352858E+0	1.277434E+0	1.366052E+0	1.297227E+0	1.311371E+0	1.297058E+0	1.238229E+0	1.265290E+0	1.346545E+0	1.286849E+0	1.284800E+0	1.286274E+0	1.358790E+0	1.352308E+0	1.332738E+0	1.281912E+0	1.267030E+0	1.236508E+0	1.306712E+0	1.320710E+0	1.322818E+0	1.307285E+0	1.317974E+0	1.272420E+0	1.228308E+0	1.401191E+0
5.512620E+2	1.241687E+0	1.238075E+0	1.258358E+0	1.325836E+0	1.287220E+0	1.268669E+0	1.284865E+0	1.227078E+0	1.253016E+0	1.260260E+0	1.239342E+0	1.219841E+0	1.251494E+0	1.245138E+0	1.292649E+0	1.272568E+0	1.216817E+0	1.247693E+0	1.297770E+0	1.299855E+0	1.342147E+0	1.155919E+0	1.228686E+0	1.288324E+0	1.249098E+0	1.250088E+0	1.267988E+0	1.288551E+0	1.256855E+0	1.205987E+0	1.336458E+0	1.195067E+0	1.241129E+0	1.284462E+0	1.299634E+0	1.235473E+0	1.290440E+0	1.221970E+0	1.296813E+0	1.274768E+0	1.297039E+0	1.283664E+0	1.259517E+0	1.245210E+0	1.283888E+0	1.297507E+0	1.293040E+0	1.217582E+0	1.305017E+0	1.292742E+0	1.266472E+0	1.222782E+0	1.260015E+0	1.324403E+0	1.294911E+0	1.259248E+0	1.232018E+0	1.277865E+0	1.216072E+0	1.273522E+0	1.241935E+0	1.338657E+0	1.300896E+0	1.274483E+0	1.253525E+0	1.266871E+0	1.301929E+0	1.157464E+0	1.244380E+0	1.339181E+0	1.233991E+0	1.245670E+0	1.283322E+0	1.242608E+0	1.304257E+0	1.227984E+0	1.327775E+0	1.278694E+0	1.236644E+0	1.226203E+0	1.190589E+0	1.231820E+0	1.273037E+0	1.243322E+0	1.250599E+0	1.234185E+0	1.318005E+0	1.226715E+0	1.295451E+0	1.269809E+0	1.248318E+0	1.269872E+0	1.253039E+0	1.214858E+0	1.268643E+0	1.243979E+0	1.285211E+0	1.239887E+0	1.291462E+0	1.211782E+0	1.337681E+0	1.252193E+0	1.267642E+0	1.224097E+0	1.259435E+0	1.241069E+0	1.223651E+0	1.277029E+0	1.228214E+0	1.248608E+0	1.284039E+0	1.249257E+0	1.279974E+0	1.227185E+0	1.296325E+0	1.284422E+0	1.198874E+0	1.279205E+0	1.250718E+0	1.259765E+0	1.296914E+0	1.252839E+0	1.215867E+0	1.266640E+0	1.335830E+0	1.234821E+0	1.270353E+0	1.210868E+0	1.253184E+0	1.294046E+0	1.186746E+0	1.242326E+0	1.178915E+0	1.286438E+0	1.269649E+0	1.267744E+0	1.277952E+0	1.292059E+0	1.251792E+0	1.262936E+0	1.237382E+0	1.277090E+0	1.280700E+0	1.229176E+0	1.330596E+0	1.259119E+0	1.242147E+0	1.238687E+0	1.263260E+0	1.281293E+0	1.248475E+0	1.248014E+0	1.219457E+0	1.247488E+0	1.280633E+0	1.213901E+0	1.322694E+0	1.292003E+0	1.263214E+0	1.288674E+0	1.238696E+0	1.226723E+0	1.249053E+0	1.174604E+0	1.243196E+0	1.281091E+0	1.312559E+0	1.268995E+0	1.274422E+0	1.291740E+0	1.282381E+0
5.520100E+2	1.263900E+0	1.249109E+0	1.289699E+0	1.294112E+0	1.225465E+0	1.368238E+0	1.287401E+0	1.229355E+0	1.280069E+0	1.215071E+0	1.305873E+0	1.266296E+0	1.290651E+0	1.340706E+0	1.351723E+0	1.307792E+0	1.318027E+0	1.282044E+0	1.312404E+0	1.379332E+0	1.340604E+0	1.267121E+0	1.308454E+0	1.273392E+0	1.362787E+0	1.271152E+0	1.289196E+0	1.290350E+0	1.317922E+0	1.262303E+0	1.302313E+0	1.272454E+0	1.332647E+0	1.323001E+0	1.335942E+0	1.296760E+0	1.338467E+0	1.334699E+0	1.302627E+0	1.317635E+0	1.325740E+0	1.325437E+0	1.311882E+0	1.285281E+0	1.318758E+0	1.301502E+0	1.330645E+0	1.314287E+0	1.261154E+0	1.325261E+0	1.331931E+0	1.238399E+0	1.283307E+0	1.290080E+0	1.352800E+0	1.308296E+0	1.306659E+0	1.251798E+0	1.326593E+0	1.308620E+0	1.295414E+0	1.316834E+0	1.325715E+0	1.274054E+0	1.291645E+0	1.278678E+0	1.338407E+0	1.299002E+0	1.333104E+0	1.277747E+0	1.263920E+0	1.309499E+0	1.343391E+0	1.236626E+0	1.266441E+0	1.284938E+0	1.308933E+0	1.315012E+0	1.266813E+0	1.212095E+0	1.307844E+0	1.292170E+0	1.343005E+0	1.327765E+0	1.241372E+0	1.279858E+0	1.305166E+0	1.260175E+0	1.289615E+0	1.293413E+0	1.313844E+0	1.268951E+0	1.284075E+0	1.293364E+0	1.288821E+0	1.268861E+0	1.344741E+0	1.320897E+0	1.310634E+0	1.277345E+0	1.347212E+0	1.245013E+0	1.297080E+0	1.277911E+0	1.294312E+0	1.265939E+0	1.275239E+0	1.280949E+0	1.262650E+0	1.325282E+0	1.376241E+0	1.321044E+0	1.273648E+0	1.290627E+0	1.330872E+0	1.334583E+0	1.309369E+0	1.311063E+0	1.263720E+0	1.278303E+0	1.293721E+0	1.334428E+0	1.264428E+0	1.316219E+0	1.259225E+0	1.311592E+0	1.267031E+0	1.257796E+0	1.320947E+0	1.292827E+0	1.297227E+0	1.343121E+0	1.236884E+0	1.289836E+0	1.308608E+0	1.250268E+0	1.314751E+0	1.304018E+0	1.277556E+0	1.255536E+0	1.347443E+0	1.288818E+0	1.290125E+0	1.268662E+0	1.314486E+0	1.277691E+0	1.275529E+0	1.276541E+0	1.325409E+0	1.363109E+0	1.266336E+0	1.262700E+0	1.308771E+0	1.284058E+0	1.245014E+0	1.263103E+0	1.253385E+0	1.291935E+0	1.348012E+0	1.230157E+0	1.275016E+0	1.320504E+0	1.265851E+0	1.253154E+0	1.312857E+0	1.305688E+0	1.268564E+0	1.287237E+0	1.375712E+0	1.354132E+0	1.358569E+0
5.527590E+2	1.228220E+0	1.227657E+0	1.293837E+0	1.286584E+0	1.252596E+0	1.231523E+0	1.191943E+0	1.202114E+0	1.222613E+0	1.182675E+0	1.278948E+0	1.251120E+0	1.228725E+0	1.239493E+0	1.295910E+0	1.260623E+0	1.335791E+0	1.235041E+0	1.299968E+0	1.274241E+0	1.310642E+0	1.247078E+0	1.221371E+0	1.194072E+0	1.306301E+0	1.211262E+0	1.179285E+0	1.269693E+0	1.276667E+0	1.235161E+0	1.249863E+0	1.206327E+0	1.296734E+0	1.220039E+0	1.231791E+0	1.206600E+0	1.256934E+0	1.256688E+0	1.238099E+0	1.253503E+0	1.245769E+0	1.261665E+0	1.288537E+0	1.252998E+0	1.270589E+0	1.294082E+0	1.299486E+0	1.218311E+0	1.221588E+0	1.272225E+0	1.241173E+0	1.206646E+0	1.239996E+0	1.267001E+0	1.230857E+0	1.255360E+0	1.214183E+0	1.193235E+0	1.189698E+0	1.188164E+0	1.234758E+0	1.250440E+0	1.256316E+0	1.209521E+0	1.285395E+0	1.217690E+0	1.224484E+0	1.136952E+0	1.228281E+0	1.224574E+0	1.269037E+0	1.282885E+0	1.171141E+0	1.215943E+0	1.209738E+0	1.202393E+0	1.279265E+0	1.268316E+0	1.260414E+0	1.207723E+0	1.247070E+0	1.229228E+0	1.267915E+0	1.243397E+0	1.271221E+0	1.192084E+0	1.286522E+0	1.286555E+0	1.197752E+0	1.177284E+0	1.256064E+0	1.228155E+0	1.253685E+0	1.229038E+0	1.239998E+0	1.257208E+0	1.310655E+0	1.255664E+0	1.256217E+0	1.192604E+0	1.245557E+0	1.244396E+0	1.261999E+0	1.217454E+0	1.213689E+0	1.187953E+0	1.258540E+0	1.254483E+0	1.206305E+0	1.213773E+0	1.301658E+0	1.227028E+0	1.268121E+0	1.257006E+0	1.284564E+0	1.259589E+0	1.263955E+0	1.234333E+0	1.252966E+0	1.210113E+0	1.212669E+0	1.218581E+0	1.248214E+0	1.285995E+0	1.214517E+0	1.283833E+0	1.216259E+0	1.245086E+0	1.249715E+0	1.209221E+0	1.220820E+0	1.205964E+0	1.216137E+0	1.191677E+0	1.235757E+0	1.228195E+0	1.242095E+0	1.190371E+0	1.270741E+0	1.249006E+0	1.218577E+0	1.265869E+0	1.286834E+0	1.231171E+0	1.248356E+0	1.242380E+0	1.255180E+0	1.235173E+0	1.203745E+0	1.272969E+0	1.249036E+0	1.294964E+0	1.215571E+0	1.279548E+0	1.232209E+0	1.227074E+0	1.199875E+0	1.215919E+0	1.268262E+0	1.169817E+0	1.194058E+0	1.279193E+0	1.228083E+0	1.166796E+0	1.200144E+0	1.252098E+0	1.231468E+0	1.224708E+0	1.273032E+0	1.252032E+0	1.272296E+0
5.534880E+2	1.128755E+0	1.201430E+0	1.145265E+0	1.158773E+0	1.148169E+0	1.191163E+0	1.184702E+0	1.217925E+0	1.149177E+0	1.143871E+0	1.173455E+0	1.169545E+0	1.168964E+0	1.167300E+0	1.171922E+0	1.225760E+0	1.160993E+0	1.210689E+0	1.174507E+0	1.192748E+0	1.207104E+0	1.160978E+0	1.131353E+0	1.133631E+0	1.286581E+0	1.175706E+0	1.163983E+0	1.156615E+0	1.151099E+0	1.118456E+0	1.185574E+0	1.189258E+0	1.178765E+0	1.212765E+0	1.140736E+0	1.217977E+0	1.198746E+0	1.175148E+0	1.199051E+0	1.198953E+0	1.202832E+0	1.227085E+0	1.201029E+0	1.166078E+0	1.232996E+0	1.208201E+0	1.177367E+0	1.116841E+0	1.190981E+0	1.211042E+0	1.157931E+0	1.141931E+0	1.163466E+0	1.229838E+0	1.238255E+0	1.117194E+0	1.110219E+0	1.179499E+0	1.185259E+0	1.131523E+0	1.168307E+0	1.199626E+0	1.196113E+0	1.190427E+0	1.175681E+0	1.144802E+0	1.166959E+0	1.202728E+0	1.169282E+0	1.199928E+0	1.192110E+0	1.114793E+0	1.200405E+0	1.196815E+0	1.133663E+0	1.135727E+0	1.189206E+0	1.182506E+0	1.234935E+0	1.119301E+0	1.155801E+0	1.129524E+0	1.210918E+0	1.159085E+0	1.163988E+0	1.189778E+0	1.142927E+0	1.139921E+0	1.190935E+0	1.170684E+0	1.222705E+0	1.202607E+0	1.170724E+0	1.205087E+0	1.179765E+0	1.162514E+0	1.156024E+0	1.165504E+0	1.190560E+0	1.124776E+0	1.146900E+0	1.099965E+0	1.226437E+0	1.234366E+0	1.169816E+0	1.154007E+0	1.173166E+0	1.209382E+0	1.163077E+0	1.174040E+0	1.155204E+0	1.146161E+0	1.170937E+0	1.182901E+0	1.221749E+0	1.213472E+0	1.189520E+0	1.167677E+0	1.150440E+0	1.198318E+0	1.167353E+0	1.134541E+0	1.259572E+0	1.118562E+0	1.189339E+0	1.153733E+0	1.169966E+0	1.170212E+0	1.171445E+0	1.208073E+0	1.170263E+0	1.176844E+0	1.177356E+0	1.217244E+0	1.121039E+0	1.156147E+0	1.157556E+0	1.185806E+0	1.166438E+0	1.114404E+0	1.174392E+0	1.215256E+0	1.194251E+0	1.154780E+0	1.201915E+0	1.200935E+0	1.210309E+0	1.176055E+0	1.180065E+0	1.160956E+0	1.151725E+0	1.239094E+0	1.150144E+0	1.197998E+0	1.130093E+0	1.207873E+0	1.125712E+0	1.171882E+0	1.150577E+0	1.199187E+0	1.145960E+0	1.186227E+0	1.205110E+0	1.172947E+0	1.119321E+0	1.156310E+0	1.186760E+0	1.195368E+0	1.133335E+0	1.147839E+0	1.285428E+0
5.542530E+2	1.172823E+0	1.131883E+0	1.177613E+0	1.131792E+0	1.168419E+0	1.143888E+0	1.114167E+0	1.172559E+0	1.182433E+0	1.082835E+0	1.109502E+0	1.127215E+0	1.181683E+0	1.103873E+0	1.188850E+0	1.156331E+0	1.195674E+0	1.126109E+0	1.145044E+0	1.180212E+0	1.124464E+0	1.080869E+0	1.159879E+0	1.143096E+0	1.090447E+0	1.127774E+0	1.162237E+0	1.120196E+0	1.142387E+0	1.130177E+0	1.132461E+0	1.115933E+0	1.103639E+0	1.131366E+0	1.209074E+0	1.101559E+0	1.127212E+0	1.140310E+0	1.167996E+0	1.137320E+0	1.148887E+0	1.144981E+0	1.150694E+0	1.133102E+0	1.154112E+0	1.135488E+0	1.145431E+0	1.118413E+0	1.138444E+0	1.146205E+0	1.153571E+0	1.115831E+0	1.078035E+0	1.181473E+0	1.155292E+0	1.121937E+0	1.103708E+0	1.112734E+0	1.099507E+0	1.126324E+0	1.107665E+0	1.159665E+0	1.127098E+0	1.105978E+0	1.133418E+0	1.104359E+0	1.157343E+0	1.114422E+0	1.109754E+0	1.147262E+0	1.152370E+0	1.179613E+0	1.174887E+0	1.133480E+0	1.138925E+0	1.075570E+0	1.122945E+0	1.128110E+0	1.143329E+0	1.094809E+0	1.095022E+0	1.134668E+0	1.145987E+0	1.118810E+0	1.169854E+0	1.139883E+0	1.124034E+0	1.129943E+0	1.080808E+0	1.109960E+0	1.145582E+0	1.166965E+0	1.160744E+0	1.145527E+0	1.164871E+0	1.088809E+0	1.158489E+0	1.165014E+0	1.146963E+0	1.185087E+0	1.117605E+0	1.150521E+0	1.142826E+0	1.119192E+0	1.118286E+0	1.159552E+0	1.124653E+0	1.153963E+0	1.132007E+0	1.179655E+0	1.152825E+0	1.104612E+0	1.125941E+0	1.134294E+0	1.170682E+0	1.124310E+0	1.067749E+0	1.109458E+0	1.148096E+0	1.143220E+0	1.076012E+0	1.099458E+0	1.158843E+0	1.113483E+0	1.153000E+0	1.128161E+0	1.168864E+0	1.099509E+0	1.168750E+0	1.110284E+0	1.152256E+0	1.105740E+0	1.077096E+0	1.085741E+0	1.168762E+0	1.131899E+0	1.149512E+0	1.164835E+0	1.090359E+0	1.110941E+0	1.129350E+0	1.119333E+0	1.161437E+0	1.141485E+0	1.168942E+0	1.189756E+0	1.148312E+0	1.124038E+0	1.115270E+0	1.166367E+0	1.080796E+0	1.132553E+0	1.094653E+0	1.140352E+0	1.140490E+0	1.095786E+0	1.193385E+0	1.125122E+0	1.158387E+0	1.061474E+0	1.150524E+0	1.160856E+0	1.129764E+0	1.169342E+0	1.146857E+0	1.200096E+0	1.102973E+0	1.123712E+0	1.056092E+0	1.111766E+0	1.126452E+0
5.550140E+2	1.035084E+0	1.046743E+0	1.043311E+0	1.071440E+0	1.031543E+0	1.031566E+0	1.050388E+0	1.039903E+0	1.085633E+0	9.847413E-1	1.087029E+0	1.023308E+0	1.032768E+0	1.053601E+0	1.081766E+0	1.103329E+0	1.082954E+0	1.042257E+0	1.056584E+0	1.091040E+0	1.028446E+0	1.003039E+0	1.089187E+0	1.019819E+0	1.071772E+0	1.004439E+0	1.039830E+0	1.047869E+0	1.005058E+0	1.038322E+0	9.886547E-1	1.021812E+0	1.040961E+0	1.084522E+0	1.101371E+0	1.010883E+0	1.117936E+0	1.048628E+0	1.054960E+0	1.063765E+0	1.025741E+0	1.077923E+0	1.056532E+0	1.029936E+0	1.046591E+0	1.023623E+0	1.070790E+0	9.545468E-1	1.039094E+0	1.031159E+0	1.023602E+0	1.021943E+0	1.050711E+0	1.080870E+0	1.058540E+0	1.006669E+0	1.091805E+0	1.029100E+0	9.969742E-1	1.111749E+0	1.033306E+0	1.035150E+0	1.072739E+0	1.058828E+0	1.060730E+0	1.006757E+0	1.048766E+0	1.026285E+0	1.050587E+0	1.069237E+0	1.043834E+0	1.049308E+0	1.084850E+0	1.104043E+0	1.064646E+0	1.069472E+0	1.029717E+0	1.044814E+0	1.048247E+0	1.006062E+0	9.974096E-1	1.062695E+0	1.029925E+0	1.032210E+0	1.038183E+0	1.027900E+0	1.017201E+0	1.031215E+0	1.022520E+0	1.043170E+0	1.009871E+0	1.037272E+0	1.081548E+0	1.060624E+0	1.065330E+0	1.064714E+0	1.017829E+0	1.039436E+0	1.032939E+0	9.900284E-1	1.045529E+0	1.007791E+0	1.054438E+0	1.037972E+0	9.863364E-1	1.003972E+0	1.063485E+0	1.033846E+0	9.970547E-1	1.051556E+0	1.066959E+0	1.056751E+0	1.006855E+0	1.054581E+0	1.053418E+0	1.026380E+0	1.044811E+0	1.049708E+0	1.056219E+0	1.024298E+0	1.037133E+0	1.023156E+0	1.047456E+0	9.875905E-1	1.032586E+0	1.059028E+0	1.053126E+0	9.911060E-1	1.036257E+0	1.055183E+0	1.075294E+0	1.044365E+0	1.061571E+0	1.015888E+0	1.056884E+0	1.046565E+0	1.027297E+0	1.086917E+0	9.880807E-1	9.959999E-1	1.011803E+0	9.986062E-1	9.930621E-1	1.034302E+0	1.045920E+0	1.034727E+0	9.836846E-1	1.011997E+0	1.028503E+0	1.062038E+0	1.014117E+0	1.026564E+0	1.061571E+0	1.106268E+0	1.047209E+0	9.888022E-1	1.052112E+0	1.007095E+0	1.024383E+0	1.032086E+0	9.993395E-1	9.967940E-1	1.039170E+0	1.059104E+0	1.052348E+0	1.080383E+0	1.024672E+0	1.047621E+0	1.066164E+0	1.095388E+0	1.065938E+0
5.557600E+2	1.009051E+0	1.037271E+0	1.037833E+0	1.051853E+0	9.904064E-1	9.963206E-1	1.010046E+0	9.425570E-1	1.024047E+0	9.743756E-1	1.054039E+0	1.050520E+0	1.013013E+0	9.777833E-1	1.031337E+0	9.886096E-1	9.913418E-1	1.049855E+0	1.060589E+0	1.015104E+0	1.074906E+0	1.000047E+0	1.039890E+0	9.329674E-1	1.057674E+0	1.054958E+0	9.292831E-1	9.559736E-1	1.011113E+0	9.727556E-1	9.983623E-1	9.336041E-1	1.036927E+0	1.064143E+0	1.086564E+0	9.544036E-1	1.037222E+0	1.082965E+0	1.042244E+0	1.055592E+0	1.022550E+0	1.035306E+0	1.041959E+0	1.011435E+0	1.031368E+0	1.033972E+0	1.040957E+0	9.968699E-1	9.809714E-1	1.041063E+0	1.026428E+0	9.938737E-1	9.324085E-1	1.026397E+0	1.024735E+0	1.001495E+0	9.713844E-1	1.023363E+0	9.956191E-1	1.036094E+0	1.026653E+0	1.052496E+0	1.086761E+0	1.042597E+0	1.030222E+0	9.877749E-1	1.019789E+0	1.012387E+0	1.011239E+0	1.014582E+0	1.049822E+0	1.036193E+0	1.029916E+0	1.018231E+0	1.049472E+0	1.004828E+0	1.003900E+0	1.017475E+0	1.004906E+0	9.842111E-1	1.016295E+0	1.007398E+0	1.035735E+0	9.606516E-1	9.982669E-1	9.928669E-1	9.909589E-1	1.055330E+0	1.054716E+0	1.011374E+0	1.021139E+0	9.866046E-1	9.923819E-1	1.033373E+0	1.039188E+0	9.508981E-1	1.012849E+0	9.940191E-1	9.867832E-1	9.534847E-1	1.031684E+0	9.799701E-1	9.963943E-1	1.073255E+0	9.883429E-1	9.805121E-1	1.004871E+0	1.033670E+0	1.048071E+0	1.048175E+0	1.017209E+0	9.417375E-1	9.855471E-1	9.820589E-1	1.020307E+0	1.032698E+0	9.926562E-1	9.806647E-1	9.948847E-1	1.002511E+0	1.020252E+0	1.008319E+0	1.021353E+0	1.046235E+0	1.009100E+0	9.627965E-1	9.698147E-1	9.347707E-1	9.905855E-1	1.036489E+0	1.023685E+0	1.010719E+0	1.021108E+0	1.010327E+0	9.936516E-1	1.018488E+0	1.042400E+0	9.591240E-1	9.665425E-1	1.001378E+0	1.006770E+0	1.065211E+0	1.041620E+0	9.716049E-1	1.014905E+0	1.049037E+0	9.921591E-1	9.619365E-1	9.930928E-1	1.051623E+0	9.798395E-1	9.976138E-1	1.009807E+0	1.040426E+0	9.907865E-1	1.011324E+0	1.017791E+0	1.005983E+0	1.062610E+0	9.973859E-1	9.892848E-1	1.040652E+0	9.950946E-1	9.903441E-1	1.010824E+0	1.031726E+0	9.953698E-1	1.046108E+0	9.861779E-1	9.964356E-1	1.008369E+0
5.560190E+2	9.680302E-1	1.007278E+0	9.846741E-1	1.001813E+0	1.006663E+0	9.763802E-1	9.844648E-1	9.545282E-1	9.354903E-1	9.773296E-1	9.809973E-1	9.773572E-1	9.985166E-1	9.867027E-1	1.021431E+0	9.385798E-1	1.027917E+0	9.909120E-1	9.667035E-1	1.018780E+0	1.040015E+0	9.147367E-1	1.003714E+0	1.005658E+0	1.047638E+0	1.005629E+0	1.004657E+0	9.521133E-1	9.991242E-1	9.670645E-1	1.052086E+0	9.634995E-1	9.655489E-1	9.874551E-1	1.033632E+0	1.010817E+0	9.745139E-1	1.021131E+0	1.050354E+0	9.918066E-1	1.035455E+0	1.041464E+0	9.870812E-1	9.893906E-1	1.003667E+0	1.039780E+0	1.051048E+0	9.785167E-1	9.978470E-1	1.003754E+0	1.017763E+0	1.008037E+0	9.720473E-1	1.002680E+0	1.023302E+0	9.706270E-1	9.221320E-1	1.001186E+0	9.907549E-1	9.756451E-1	9.907535E-1	1.049445E+0	1.029174E+0	1.003641E+0	9.925598E-1	9.601223E-1	9.752808E-1	9.821404E-1	1.012262E+0	1.016188E+0	1.014885E+0	9.683494E-1	9.880213E-1	9.488959E-1	9.709519E-1	9.570558E-1	9.712746E-1	9.906466E-1	1.018781E+0	9.762342E-1	9.730091E-1	1.003302E+0	9.653854E-1	9.981803E-1	9.721165E-1	1.039414E+0	9.886783E-1	1.014046E+0	9.995732E-1	9.648367E-1	9.831634E-1	1.012074E+0	9.946610E-1	9.934270E-1	1.056202E+0	9.496280E-1	1.024094E+0	1.040127E+0	9.922231E-1	9.616454E-1	1.001243E+0	9.688326E-1	1.009904E+0	1.014431E+0	9.726895E-1	9.620133E-1	1.010988E+0	9.507514E-1	9.712214E-1	9.684969E-1	1.051280E+0	9.403490E-1	9.492781E-1	9.687117E-1	1.015513E+0	1.020142E+0	9.990455E-1	1.010051E+0	9.754108E-1	9.708573E-1	9.841744E-1	9.718085E-1	1.039866E+0	9.986765E-1	1.014646E+0	1.048264E+0	9.955185E-1	9.203753E-1	9.816198E-1	9.634759E-1	1.011005E+0	1.023539E+0	9.420315E-1	1.002073E+0	1.016271E+0	9.962389E-1	1.015569E+0	1.023486E+0	9.877156E-1	9.404583E-1	1.025436E+0	1.009572E+0	1.019194E+0	1.011159E+0	1.037972E+0	1.027904E+0	9.847068E-1	9.906178E-1	9.645400E-1	9.723553E-1	9.672898E-1	9.833333E-1	9.445488E-1	9.959389E-1	9.898947E-1	9.966331E-1	1.021714E+0	9.775636E-1	1.023698E+0	1.022103E+0	9.932088E-1	9.629467E-1	9.922479E-1	9.751787E-1	1.012259E+0	1.005143E+0	1.022530E+0	9.893464E-1	1.040824E+0	9.753874E-1	1.050604E+0
5.565140E+2	8.994030E-1	9.122649E-1	9.618985E-1	9.267304E-1	9.437035E-1	9.393580E-1	9.553556E-1	9.653875E-1	9.404019E-1	9.598570E-1	9.957098E-1	9.381396E-1	9.570989E-1	9.770568E-1	9.938228E-1	9.396058E-1	9.450098E-1	9.660097E-1	9.467466E-1	9.527058E-1	9.859949E-1	9.177680E-1	9.101197E-1	9.288710E-1	1.005914E+0	9.524250E-1	9.691482E-1	9.538983E-1	9.702097E-1	9.629672E-1	9.286049E-1	9.631332E-1	9.673393E-1	9.771300E-1	9.950936E-1	9.832618E-1	1.039571E+0	9.737080E-1	9.987832E-1	9.659983E-1	9.771496E-1	9.485431E-1	9.860499E-1	9.620699E-1	1.009996E+0	1.001394E+0	1.000525E+0	9.343327E-1	9.798548E-1	9.764153E-1	9.689274E-1	9.518643E-1	9.930674E-1	9.731228E-1	9.994799E-1	9.968912E-1	9.886435E-1	9.763028E-1	9.342577E-1	9.653876E-1	9.152960E-1	9.983667E-1	9.843963E-1	9.489685E-1	9.510840E-1	9.573960E-1	9.429009E-1	9.594707E-1	1.025226E+0	9.616060E-1	1.002860E+0	9.209041E-1	9.507734E-1	9.582648E-1	9.479570E-1	9.736797E-1	9.548819E-1	9.754339E-1	9.808100E-1	9.473786E-1	9.661518E-1	9.617002E-1	9.479319E-1	9.699786E-1	9.608765E-1	9.341964E-1	9.407504E-1	9.352379E-1	9.746929E-1	9.461965E-1	9.769875E-1	9.854288E-1	9.005357E-1	9.495513E-1	9.983188E-1	9.351720E-1	9.457535E-1	9.491289E-1	9.591672E-1	9.535043E-1	9.437629E-1	9.473519E-1	9.515179E-1	1.000694E+0	9.741782E-1	8.938038E-1	9.920728E-1	9.625616E-1	9.551641E-1	9.959440E-1	9.646213E-1	9.468205E-1	9.107602E-1	9.319095E-1	9.591711E-1	9.869564E-1	9.795277E-1	9.247610E-1	9.077862E-1	1.003993E+0	9.642788E-1	9.598459E-1	9.114322E-1	1.014208E+0	9.731651E-1	9.816805E-1	9.271026E-1	9.444307E-1	9.301369E-1	9.911375E-1	1.041716E+0	9.323590E-1	9.943329E-1	1.010613E+0	9.856404E-1	9.972254E-1	9.987948E-1	9.905418E-1	9.714177E-1	9.608438E-1	9.742002E-1	1.024297E+0	9.592258E-1	9.561013E-1	1.011138E+0	9.961990E-1	9.641051E-1	9.309104E-1	9.597142E-1	9.574550E-1	9.444718E-1	9.633155E-1	9.563713E-1	9.729189E-1	9.031882E-1	9.542382E-1	1.010085E+0	9.816670E-1	1.055550E+0	9.343121E-1	9.957414E-1	9.627951E-1	9.640534E-1	9.386392E-1	1.000337E+0	9.374689E-1	9.627741E-1	9.869134E-1	9.600042E-1	9.295010E-1	9.330846E-1
5.570220E+2	9.712860E-1	9.357982E-1	9.696808E-1	1.046166E+0	9.839891E-1	9.724173E-1	1.011083E+0	1.006750E+0	9.962991E-1	9.812010E-1	1.025161E+0	1.014948E+0	1.029987E+0	1.015563E+0	1.006543E+0	1.029576E+0	9.537198E-1	1.003378E+0	9.859228E-1	1.018486E+0	1.065480E+0	9.753406E-1	9.933634E-1	9.588843E-1	1.023515E+0	1.016297E+0	9.917827E-1	9.789524E-1	9.767352E-1	9.837809E-1	1.010505E+0	9.623862E-1	9.685591E-1	9.795991E-1	9.824052E-1	9.806810E-1	1.028794E+0	1.017011E+0	1.011403E+0	1.004886E+0	9.909691E-1	9.997921E-1	9.440687E-1	1.023130E+0	1.029460E+0	1.009942E+0	9.968066E-1	9.754838E-1	1.046663E+0	1.031228E+0	9.775877E-1	9.917529E-1	9.561381E-1	1.027328E+0	9.810884E-1	1.007032E+0	1.017551E+0	1.003088E+0	9.603421E-1	9.588954E-1	1.008065E+0	9.786648E-1	1.035549E+0	9.702481E-1	1.000023E+0	1.004449E+0	9.726285E-1	9.744187E-1	9.683083E-1	1.006607E+0	9.852173E-1	9.656439E-1	9.907163E-1	9.460266E-1	1.023757E+0	9.574557E-1	1.000602E+0	1.004662E+0	9.820277E-1	9.597129E-1	1.032935E+0	9.955729E-1	1.044413E+0	9.978504E-1	9.767865E-1	9.474860E-1	1.027068E+0	1.033494E+0	1.002283E+0	9.820955E-1	1.025953E+0	9.995107E-1	9.931125E-1	9.636301E-1	9.979370E-1	9.806170E-1	1.062285E+0	9.452472E-1	1.013306E+0	9.884655E-1	9.642608E-1	9.429462E-1	9.372426E-1	1.005107E+0	9.905477E-1	9.546398E-1	1.049213E+0	9.725379E-1	1.001188E+0	1.014157E+0	1.048865E+0	1.015446E+0	9.375831E-1	9.560044E-1	1.004720E+0	1.016741E+0	1.017906E+0	9.999695E-1	1.008734E+0	9.666105E-1	9.751477E-1	9.685330E-1	1.006860E+0	1.037738E+0	9.957603E-1	9.574406E-1	1.007081E+0	9.781627E-1	1.013521E+0	9.681219E-1	1.016733E+0	1.011791E+0	1.000477E+0	9.995613E-1	9.837875E-1	1.021937E+0	1.025098E+0	9.670654E-1	9.827475E-1	9.688746E-1	1.029110E+0	9.957306E-1	1.037953E+0	1.000718E+0	1.001486E+0	9.956841E-1	1.013391E+0	1.023166E+0	9.676664E-1	1.004881E+0	9.979609E-1	9.836839E-1	1.010218E+0	1.052085E+0	1.006230E+0	1.037934E+0	9.528635E-1	1.017205E+0	1.027930E+0	9.669628E-1	9.961613E-1	9.649961E-1	1.019005E+0	9.613999E-1	9.754152E-1	1.004971E+0	1.042230E+0	9.861066E-1	1.014706E+0	1.021272E+0	9.808370E-1
5.575420E+2	1.034851E+0	9.620494E-1	9.644339E-1	1.027606E+0	1.008467E+0	1.013861E+0	9.906835E-1	9.887706E-1	9.683424E-1	9.624388E-1	9.929592E-1	9.565384E-1	9.891240E-1	9.412357E-1	9.907262E-1	9.853886E-1	1.002254E+0	1.039953E+0	9.760786E-1	1.001306E+0	1.032303E+0	9.822002E-1	9.722563E-1	9.772013E-1	1.035620E+0	1.038919E+0	1.010967E+0	9.826984E-1	1.047991E+0	9.877610E-1	1.002679E+0	1.015010E+0	1.027953E+0	9.885023E-1	9.866555E-1	1.012366E+0	1.029374E+0	1.000487E+0	1.061275E+0	9.676023E-1	1.060928E+0	1.054090E+0	9.909535E-1	9.917658E-1	1.093796E+0	9.887635E-1	9.978276E-1	9.788767E-1	9.898368E-1	1.033121E+0	9.824708E-1	9.885830E-1	9.992117E-1	1.093110E+0	9.840293E-1	9.744073E-1	9.812329E-1	1.006264E+0	9.617291E-1	9.542132E-1	9.916832E-1	1.003632E+0	1.022752E+0	9.651651E-1	9.870119E-1	9.856830E-1	9.640535E-1	9.558775E-1	1.038396E+0	1.027135E+0	9.653437E-1	1.037815E+0	9.907353E-1	9.863419E-1	1.017831E+0	9.548827E-1	1.024156E+0	9.984398E-1	9.791011E-1	9.655631E-1	9.943186E-1	1.022817E+0	1.035278E+0	9.492706E-1	9.914047E-1	9.463717E-1	1.022856E+0	9.921349E-1	9.855877E-1	9.984696E-1	9.955656E-1	1.008750E+0	9.761153E-1	9.852841E-1	1.058842E+0	9.234340E-1	1.031460E+0	1.046629E+0	1.029597E+0	9.865329E-1	1.034454E+0	9.475627E-1	9.863273E-1	9.510230E-1	9.591732E-1	9.629902E-1	1.006980E+0	1.014283E+0	9.815462E-1	9.824932E-1	1.055110E+0	9.790679E-1	9.770030E-1	1.000433E+0	1.019372E+0	9.719729E-1	1.064802E+0	9.762219E-1	1.021409E+0	1.000650E+0	1.021904E+0	1.019362E+0	9.921822E-1	1.027294E+0	1.027884E+0	1.006160E+0	1.040288E+0	1.031606E+0	9.793366E-1	9.678791E-1	1.060826E+0	9.442121E-1	9.630716E-1	9.310647E-1	9.504256E-1	1.010000E+0	1.052258E+0	9.945224E-1	9.816382E-1	1.022347E+0	9.960337E-1	9.987457E-1	1.031153E+0	9.971908E-1	9.959629E-1	9.981058E-1	1.006496E+0	9.857996E-1	1.020342E+0	1.011136E+0	9.957575E-1	1.013826E+0	1.001569E+0	1.051351E+0	1.030003E+0	9.946412E-1	1.022250E+0	9.655338E-1	9.835122E-1	1.005042E+0	9.652603E-1	9.866847E-1	9.934271E-1	1.030948E+0	9.446938E-1	9.787912E-1	9.949989E-1	1.001842E+0	9.675504E-1	9.457562E-1	9.641372E-1
5.580060E+2	9.262573E-1	9.459427E-1	9.897920E-1	1.023484E+0	1.037528E+0	9.831428E-1	9.979211E-1	9.603005E-1	1.004346E+0	9.753794E-1	1.024484E+0	1.036476E+0	9.663003E-1	9.703039E-1	9.597796E-1	9.993924E-1	1.012013E+0	9.640536E-1	1.012603E+0	9.556982E-1	9.857134E-1	9.582749E-1	1.033863E+0	1.014543E+0	1.040637E+0	9.528287E-1	1.018854E+0	9.333099E-1	9.739423E-1	9.798664E-1	9.849579E-1	9.994555E-1	9.947782E-1	9.664337E-1	9.903444E-1	1.002312E+0	9.818628E-1	9.910917E-1	9.965097E-1	9.373114E-1	1.068627E+0	1.028071E+0	9.883073E-1	9.599169E-1	9.769834E-1	1.007500E+0	9.744323E-1	1.020277E+0	9.861947E-1	1.010612E+0	9.420482E-1	1.012003E+0	9.543524E-1	9.626338E-1	9.971290E-1	1.021407E+0	1.015676E+0	1.021212E+0	9.862836E-1	9.532290E-1	1.004633E+0	9.770826E-1	9.957951E-1	9.489244E-1	9.671181E-1	9.532657E-1	1.013184E+0	9.786307E-1	1.011269E+0	9.529079E-1	9.660580E-1	9.920785E-1	1.009056E+0	1.038502E+0	9.477409E-1	9.425049E-1	9.905594E-1	9.914350E-1	9.924984E-1	9.751792E-1	9.850726E-1	9.871635E-1	9.946781E-1	9.814893E-1	9.880188E-1	1.017645E+0	9.915310E-1	1.042126E+0	9.537459E-1	9.579402E-1	1.022212E+0	9.789655E-1	9.681574E-1	1.029121E+0	9.628087E-1	9.621655E-1	9.574497E-1	1.015985E+0	9.624287E-1	9.831221E-1	1.012584E+0	1.009403E+0	9.769815E-1	1.032903E+0	9.828360E-1	9.558914E-1	9.945264E-1	9.894505E-1	1.007017E+0	1.011470E+0	1.018107E+0	1.087950E+0	9.815628E-1	1.012587E+0	9.388848E-1	9.617689E-1	9.569588E-1	9.998289E-1	1.011907E+0	9.432023E-1	9.659009E-1	9.465427E-1	9.684013E-1	9.979857E-1	1.002174E+0	1.039341E+0	1.010027E+0	9.666890E-1	1.017760E+0	1.022780E+0	9.945441E-1	1.038037E+0	1.007957E+0	9.845556E-1	9.938780E-1	1.035388E+0	9.820651E-1	9.978546E-1	9.975283E-1	1.034904E+0	9.601280E-1	9.618707E-1	9.888800E-1	9.790845E-1	9.582315E-1	9.942065E-1	9.946741E-1	1.021460E+0	9.470095E-1	1.006102E+0	1.019716E+0	9.383483E-1	9.919829E-1	9.698982E-1	1.008270E+0	9.847346E-1	9.804494E-1	9.868355E-1	1.025162E+0	9.821400E-1	9.808767E-1	1.001788E+0	1.031151E+0	9.482344E-1	1.015990E+0	1.003563E+0	9.934852E-1	9.807583E-1	9.435587E-1	1.081736E+0	9.263991E-1
5.585160E+2	9.992911E-1	1.023277E+0	1.016486E+0	9.845330E-1	9.645056E-1	1.033669E+0	9.646209E-1	9.930793E-1	1.015407E+0	1.012330E+0	9.772140E-1	9.520694E-1	1.005932E+0	9.778531E-1	1.012530E+0	9.480723E-1	1.004510E+0	9.979417E-1	1.006978E+0	1.010069E+0	9.498022E-1	9.503109E-1	9.469100E-1	9.985589E-1	1.001736E+0	1.058200E+0	1.032769E+0	9.927186E-1	1.001684E+0	9.711426E-1	9.726096E-1	9.964041E-1	9.856443E-1	9.800324E-1	9.899126E-1	9.764108E-1	9.957943E-1	1.044043E+0	9.849362E-1	9.652157E-1	9.625740E-1	9.876873E-1	9.689610E-1	9.854696E-1	9.692649E-1	9.918806E-1	1.002523E+0	9.459502E-1	9.776040E-1	9.978360E-1	1.012178E+0	9.634877E-1	1.001593E+0	1.004949E+0	9.856259E-1	9.620944E-1	1.001526E+0	1.007432E+0	1.043309E+0	1.011897E+0	9.914544E-1	9.751915E-1	9.811001E-1	1.013396E+0	9.935214E-1	1.015268E+0	9.695658E-1	1.023219E+0	9.782060E-1	1.011047E+0	1.020934E+0	9.891300E-1	9.794562E-1	1.038653E+0	9.771133E-1	9.971779E-1	9.849159E-1	9.586427E-1	9.904591E-1	9.647204E-1	9.656143E-1	9.938138E-1	9.938264E-1	9.894558E-1	9.515500E-1	9.758133E-1	1.014238E+0	9.985123E-1	1.011854E+0	1.010785E+0	9.808170E-1	9.969712E-1	9.901965E-1	9.603592E-1	1.019407E+0	9.519624E-1	9.863218E-1	1.021845E+0	1.007589E+0	1.047151E+0	1.021071E+0	1.024757E+0	1.022202E+0	9.903275E-1	1.001560E+0	1.014151E+0	9.713873E-1	1.011801E+0	1.022861E+0	9.871711E-1	9.597023E-1	9.214203E-1	1.007834E+0	9.988952E-1	1.047923E+0	9.531991E-1	9.934362E-1	9.940889E-1	9.617039E-1	1.005984E+0	1.030878E+0	1.000355E+0	9.782577E-1	1.041330E+0	9.969588E-1	1.010425E+0	1.017291E+0	9.875554E-1	9.528350E-1	1.008658E+0	9.874147E-1	9.797378E-1	1.028440E+0	1.003051E+0	9.976647E-1	9.904181E-1	9.732081E-1	9.784133E-1	1.012967E+0	1.002030E+0	9.911541E-1	1.007194E+0	1.002769E+0	1.013044E+0	9.911115E-1	9.870023E-1	1.012434E+0	9.649866E-1	1.002606E+0	1.010769E+0	1.012109E+0	9.635949E-1	9.993494E-1	1.045699E+0	9.885459E-1	9.644725E-1	9.908996E-1	9.695911E-1	9.818538E-1	9.425648E-1	1.005348E+0	1.000709E+0	1.003129E+0	9.480057E-1	9.731496E-1	1.001296E+0	9.623114E-1	1.011450E+0	1.019698E+0	9.097665E-1	9.917986E-1
5.590040E+2	1.045363E+0	9.881261E-1	9.681912E-1	9.706058E-1	9.249493E-1	1.007283E+0	1.015282E+0	1.015082E+0	1.023657E+0	1.024308E+0	9.558928E-1	9.998209E-1	1.006927E+0	9.933765E-1	1.001319E+0	9.764802E-1	9.946640E-1	9.895985E-1	9.849711E-1	9.696083E-1	9.657474E-1	1.013750E+0	9.922554E-1	9.936276E-1	1.005660E+0	1.008188E+0	9.870315E-1	9.427055E-1	1.005612E+0	1.001387E+0	1.023617E+0	9.839965E-1	1.021607E+0	9.820188E-1	1.013735E+0	1.039810E+0	1.026092E+0	1.002766E+0	1.004859E+0	1.002353E+0	9.928898E-1	9.688126E-1	1.026234E+0	1.018137E+0	9.983219E-1	9.958973E-1	9.773506E-1	1.028353E+0	1.034248E+0	1.014340E+0	9.937157E-1	1.001210E+0	9.925710E-1	9.850836E-1	1.019824E+0	9.989753E-1	1.011399E+0	9.496627E-1	9.409846E-1	1.031662E+0	9.780812E-1	1.053594E+0	1.028367E+0	1.051563E+0	1.026961E+0	1.020413E+0	9.973584E-1	1.008198E+0	9.706621E-1	1.002519E+0	9.805819E-1	1.024117E+0	1.018605E+0	9.975805E-1	9.932103E-1	1.028243E+0	9.965824E-1	9.953741E-1	1.022368E+0	1.027833E+0	9.498624E-1	9.578510E-1	9.745641E-1	1.002763E+0	1.024185E+0	9.833701E-1	9.912664E-1	1.003869E+0	1.023433E+0	9.868771E-1	9.829507E-1	9.976115E-1	1.012877E+0	1.019264E+0	9.734823E-1	1.043242E+0	9.961993E-1	9.749852E-1	9.946015E-1	1.027148E+0	9.757231E-1	9.880808E-1	9.775088E-1	9.748632E-1	1.004389E+0	1.023793E+0	1.000650E+0	1.001784E+0	1.027534E+0	1.010213E+0	9.808738E-1	1.029382E+0	1.013937E+0	9.925596E-1	9.518775E-1	1.034681E+0	1.013783E+0	1.010031E+0	9.808739E-1	1.017353E+0	1.031099E+0	1.016697E+0	1.021788E+0	9.921562E-1	1.018518E+0	9.601868E-1	9.936809E-1	1.012652E+0	9.974300E-1	1.015738E+0	9.801877E-1	9.882778E-1	9.793736E-1	9.592761E-1	1.000196E+0	9.686388E-1	1.027796E+0	1.011557E+0	1.017509E+0	9.949188E-1	9.875178E-1	9.960833E-1	1.005981E+0	1.005529E+0	1.023657E+0	1.019654E+0	9.956125E-1	1.012201E+0	1.047881E+0	9.993348E-1	1.006446E+0	1.024418E+0	1.023367E+0	9.504598E-1	1.047746E+0	1.017807E+0	1.011057E+0	1.041347E+0	9.906396E-1	1.026794E+0	9.770915E-1	9.860317E-1	1.045179E+0	9.670563E-1	9.736049E-1	9.547380E-1	1.017218E+0	9.457550E-1	1.022131E+0	9.981206E-1	1.028183E+0
5.595110E+2	1.041310E+0	1.031338E+0	9.997731E-1	9.981597E-1	1.033586E+0	1.024806E+0	1.014821E+0	1.068213E+0	9.798218E-1	1.038243E+0	9.863933E-1	1.051786E+0	1.021410E+0	1.001497E+0	1.012608E+0	1.056007E+0	9.987371E-1	1.008590E+0	1.047477E+0	1.033029E+0	1.035345E+0	1.040475E+0	1.008009E+0	1.004761E+0	9.837586E-1	1.022824E+0	1.035601E+0	1.031784E+0	9.921093E-1	1.030101E+0	1.019057E+0	1.043937E+0	1.017181E+0	1.037021E+0	1.012277E+0	1.036514E+0	1.010751E+0	1.004185E+0	9.955125E-1	1.032151E+0	1.013501E+0	1.018848E+0	1.056889E+0	1.018357E+0	1.006184E+0	1.052691E+0	1.022263E+0	1.042957E+0	1.035389E+0	9.858266E-1	1.036517E+0	1.034147E+0	1.087751E+0	1.001105E+0	1.013798E+0	1.040996E+0	9.440354E-1	9.972296E-1	1.075128E+0	1.071402E+0	1.011016E+0	9.907633E-1	9.934692E-1	1.052645E+0	1.056675E+0	1.009366E+0	1.017270E+0	9.998877E-1	1.036623E+0	1.033622E+0	1.070122E+0	1.058165E+0	1.028939E+0	1.009022E+0	1.074025E+0	1.064893E+0	1.004665E+0	1.017348E+0	1.000064E+0	1.014132E+0	1.022015E+0	1.035863E+0	1.030463E+0	1.062535E+0	1.018207E+0	1.013139E+0	1.010835E+0	1.004454E+0	1.062775E+0	1.007668E+0	1.042294E+0	1.009132E+0	1.049628E+0	9.994387E-1	9.973440E-1	1.029563E+0	1.030191E+0	1.021299E+0	1.027054E+0	1.049169E+0	1.013403E+0	1.005099E+0	1.026179E+0	1.026220E+0	1.060130E+0	1.014069E+0	1.018358E+0	1.041462E+0	9.650605E-1	9.834057E-1	1.061542E+0	1.032879E+0	1.002690E+0	1.041540E+0	1.004444E+0	1.060551E+0	1.057486E+0	1.035264E+0	9.975531E-1	1.051623E+0	1.004615E+0	1.071907E+0	1.060013E+0	9.653424E-1	9.798595E-1	1.014288E+0	1.010335E+0	1.027526E+0	1.026205E+0	1.033293E+0	1.019093E+0	1.026178E+0	9.806364E-1	1.013286E+0	1.029535E+0	1.025079E+0	1.016978E+0	1.030075E+0	9.986613E-1	1.006763E+0	9.870610E-1	1.012647E+0	1.029290E+0	1.046213E+0	1.061669E+0	1.032438E+0	1.018971E+0	1.049942E+0	1.028369E+0	1.037114E+0	1.027625E+0	1.006938E+0	1.018437E+0	1.052265E+0	9.907838E-1	9.766797E-1	1.018175E+0	1.083108E+0	9.954067E-1	1.043451E+0	1.008808E+0	9.856429E-1	9.850678E-1	1.028471E+0	1.024834E+0	1.009912E+0	1.008651E+0	9.985384E-1	1.001044E+0	1.041988E+0	9.517210E-1
5.600470E+2	9.998429E-1	1.065686E+0	1.021008E+0	1.060949E+0	1.053804E+0	9.857391E-1	1.046553E+0	9.946015E-1	1.032007E+0	1.031980E+0	1.087733E+0	1.008171E+0	1.030433E+0	1.019226E+0	1.052592E+0	1.019007E+0	1.005886E+0	1.057390E+0	1.044848E+0	1.029024E+0	1.029587E+0	1.037536E+0	1.040539E+0	9.756956E-1	1.021193E+0	1.021132E+0	1.015484E+0	1.067019E+0	1.027404E+0	1.023032E+0	1.046670E+0	1.003820E+0	1.083364E+0	1.034014E+0	1.051684E+0	1.029732E+0	1.033280E+0	1.008485E+0	1.045604E+0	1.058890E+0	1.024469E+0	1.021001E+0	1.023575E+0	1.054626E+0	1.046069E+0	1.006869E+0	1.018557E+0	1.055051E+0	1.026817E+0	1.031000E+0	1.044703E+0	1.013513E+0	1.036784E+0	1.061187E+0	1.031228E+0	1.013508E+0	1.048790E+0	1.035434E+0	1.000439E+0	1.003230E+0	1.084955E+0	1.003581E+0	1.041655E+0	9.898735E-1	1.027094E+0	1.072554E+0	1.041054E+0	1.063742E+0	9.996481E-1	1.048302E+0	1.011829E+0	9.932189E-1	1.005055E+0	9.947189E-1	1.015831E+0	1.015955E+0	1.044362E+0	1.032528E+0	1.054988E+0	1.015073E+0	1.067404E+0	1.050611E+0	1.053531E+0	1.037457E+0	1.016511E+0	1.021700E+0	1.007443E+0	9.762873E-1	1.007323E+0	1.043050E+0	1.040370E+0	1.046763E+0	1.053013E+0	1.035940E+0	1.029828E+0	1.009816E+0	1.052924E+0	1.019515E+0	1.066117E+0	9.738520E-1	9.806084E-1	1.031858E+0	1.031928E+0	1.037093E+0	1.038279E+0	1.045965E+0	9.970601E-1	1.046322E+0	1.012129E+0	1.044662E+0	1.066413E+0	1.038964E+0	1.053247E+0	1.004198E+0	1.053885E+0	1.062055E+0	1.047678E+0	1.038874E+0	1.027852E+0	1.033785E+0	1.018494E+0	1.050305E+0	1.004199E+0	1.031737E+0	9.887277E-1	1.023631E+0	9.973677E-1	1.025909E+0	1.003735E+0	9.922635E-1	1.034868E+0	1.006863E+0	9.889755E-1	1.023347E+0	1.040025E+0	1.036404E+0	1.036973E+0	1.021810E+0	1.037301E+0	1.005560E+0	1.082572E+0	1.075219E+0	1.012282E+0	9.926433E-1	1.006287E+0	1.042349E+0	1.023845E+0	9.913037E-1	1.057617E+0	1.018301E+0	9.998639E-1	1.062999E+0	1.009649E+0	1.045544E+0	1.029445E+0	1.044474E+0	1.031436E+0	1.029648E+0	1.051643E+0	1.081740E+0	1.044365E+0	1.067286E+0	1.019117E+0	1.065498E+0	1.035156E+0	1.011816E+0	1.035698E+0	1.036198E+0	1.060120E+0	1.006792E+0	1.039202E+0
5.605210E+2	1.015295E+0	9.538927E-1	1.005243E+0	9.822595E-1	1.000753E+0	1.031249E+0	9.632593E-1	1.000053E+0	9.767345E-1	9.949958E-1	1.008104E+0	1.017484E+0	1.024501E+0	1.037771E+0	9.888350E-1	9.866285E-1	1.007393E+0	1.019393E+0	9.821827E-1	1.040301E+0	1.043357E+0	1.022562E+0	9.813123E-1	1.023654E+0	9.869820E-1	9.810713E-1	9.760692E-1	1.052370E+0	1.014736E+0	1.037946E+0	1.002814E+0	1.034441E+0	9.783228E-1	1.011073E+0	9.699764E-1	9.967615E-1	9.826333E-1	1.010450E+0	9.934318E-1	1.033295E+0	9.602312E-1	9.907769E-1	1.026814E+0	1.049652E+0	1.019605E+0	9.943558E-1	1.060146E+0	9.953497E-1	9.806921E-1	1.008342E+0	1.018778E+0	9.978350E-1	9.771067E-1	1.016022E+0	1.025174E+0	1.042905E+0	1.010453E+0	1.030717E+0	9.986968E-1	1.021367E+0	9.847233E-1	1.020588E+0	9.875961E-1	9.652577E-1	9.971051E-1	9.885719E-1	9.908023E-1	9.471925E-1	1.028141E+0	9.966546E-1	9.908459E-1	1.045234E+0	9.894557E-1	9.616798E-1	1.007089E+0	1.020665E+0	1.023028E+0	1.045964E+0	9.956054E-1	1.016413E+0	1.040154E+0	1.013145E+0	9.919531E-1	1.024120E+0	1.030116E+0	1.043617E+0	1.021018E+0	1.034622E+0	9.936241E-1	9.859798E-1	9.864138E-1	1.009259E+0	9.708202E-1	1.030461E+0	1.039592E+0	1.016969E+0	1.014426E+0	1.019510E+0	9.978787E-1	9.920256E-1	1.005916E+0	9.772164E-1	9.914647E-1	1.027354E+0	9.821964E-1	9.726670E-1	1.065190E+0	1.002822E+0	1.032064E+0	1.007588E+0	9.923794E-1	9.768246E-1	9.897351E-1	9.980781E-1	1.002550E+0	1.016616E+0	9.515305E-1	9.870987E-1	1.043666E+0	1.011570E+0	1.001514E+0	9.615922E-1	9.838546E-1	1.027520E+0	1.053285E+0	1.021937E+0	1.025667E+0	1.010530E+0	1.035775E+0	9.837768E-1	1.024680E+0	1.008263E+0	1.022200E+0	1.023479E+0	1.001313E+0	9.925624E-1	1.010809E+0	9.677860E-1	1.008676E+0	1.009853E+0	1.032905E+0	1.017725E+0	1.008277E+0	1.039225E+0	1.012063E+0	9.800968E-1	1.039903E+0	1.028374E+0	9.751807E-1	9.618266E-1	9.897134E-1	9.893967E-1	9.995975E-1	9.844312E-1	9.852015E-1	1.026946E+0	9.819480E-1	9.538536E-1	1.034442E+0	9.576393E-1	1.000703E+0	9.841577E-1	9.583892E-1	1.028832E+0	1.002026E+0	1.029324E+0	9.979866E-1	1.076650E+0	9.496827E-1	9.830737E-1	1.061353E+0
5.610010E+2	9.726412E-1	9.917373E-1	9.995068E-1	9.800081E-1	9.848735E-1	9.341097E-1	9.975435E-1	9.686706E-1	9.680259E-1	9.227628E-1	9.601791E-1	9.341930E-1	9.444972E-1	9.999721E-1	9.723362E-1	1.014413E+0	9.767961E-1	9.630333E-1	9.209409E-1	9.622697E-1	9.904479E-1	9.770912E-1	9.971114E-1	9.891592E-1	9.600333E-1	9.557556E-1	9.341915E-1	9.800928E-1	9.845121E-1	9.565249E-1	9.502737E-1	9.379457E-1	9.191034E-1	9.894069E-1	9.720701E-1	9.184598E-1	9.695863E-1	9.389796E-1	9.791468E-1	9.707834E-1	9.777076E-1	9.848027E-1	9.092200E-1	9.138423E-1	9.835722E-1	9.508068E-1	9.447273E-1	9.120617E-1	9.590550E-1	9.520433E-1	9.520600E-1	9.778037E-1	9.498417E-1	9.690195E-1	9.272206E-1	9.201150E-1	9.681215E-1	9.583123E-1	9.551593E-1	9.072125E-1	9.451372E-1	9.791996E-1	9.720178E-1	9.783410E-1	9.315261E-1	9.405613E-1	9.707652E-1	9.791308E-1	9.754505E-1	9.549488E-1	9.596288E-1	8.980566E-1	9.694334E-1	9.598444E-1	9.849903E-1	9.305607E-1	9.558873E-1	9.587079E-1	9.440169E-1	9.866492E-1	9.698779E-1	9.615525E-1	9.609843E-1	9.021797E-1	9.714125E-1	9.447159E-1	9.636683E-1	9.401301E-1	9.472447E-1	1.007700E+0	9.449421E-1	9.612983E-1	9.553086E-1	9.254157E-1	9.775378E-1	9.862815E-1	9.624879E-1	9.268596E-1	9.443307E-1	9.275322E-1	9.906937E-1	9.635868E-1	9.737365E-1	9.112397E-1	9.306092E-1	9.734636E-1	9.528280E-1	9.063582E-1	9.333343E-1	9.554896E-1	9.209826E-1	9.125811E-1	9.509954E-1	9.521428E-1	1.000437E+0	9.111289E-1	9.791273E-1	9.348144E-1	9.764442E-1	9.364828E-1	9.474995E-1	9.526014E-1	9.834867E-1	9.439290E-1	9.604770E-1	9.301921E-1	9.456329E-1	9.691400E-1	9.662606E-1	9.434921E-1	9.592133E-1	9.526423E-1	9.924169E-1	9.930062E-1	9.373896E-1	9.515097E-1	9.521707E-1	9.925038E-1	9.273575E-1	9.459707E-1	9.586629E-1	9.292611E-1	9.525201E-1	9.242611E-1	9.469809E-1	9.442536E-1	9.145603E-1	9.317327E-1	9.413362E-1	9.665519E-1	9.445264E-1	1.014306E+0	9.576170E-1	9.517030E-1	9.500069E-1	9.848868E-1	9.860350E-1	9.356173E-1	9.208525E-1	9.656704E-1	9.828076E-1	9.743842E-1	9.579677E-1	1.013903E+0	9.752398E-1	9.893513E-1	9.846490E-1	9.506508E-1	1.003765E+0	9.785234E-1	1.001344E+0
