Photon Energy (eV)	#1	#2	#3	#4	#5	#6	#7	#8	#9	#10	#11	#12	#13	#14	#15	#16	#17	#18	#19	#20	#21	#22	#23	#24	#25	#26	#27	#28	#29	#30	#31	#32	#33	#34	#35	#36	#37	#38	#39	#40	#41	#42	#43	#44	#45	#46	#47	#48	#49	#50	#51	#52	#53	#54	#55	#56	#57	#58	#59	#60	#61	#62	#63	#64	#65	#66	#67	#68	#69	#70	#71	#72	#73	#74	#75	#76	#77	#78	#79	#80	#81	#82	#83	#84	#85	#86	#87	#88	#89	#90	#91	#92	#93	#94	#95	#96	#97	#98	#99	#100	#101	#102	#103	#104	#105	#106	#107	#108	#109	#110	#111	#112	#113	#114	#115	#116	#117	#118	#119	#120	#121	#122	#123	#124	#125	#126	#127	#128	#129	#130	#131	#132	#133	#134	#135	#136	#137	#138	#139	#140	#141	#142	#143	#144	#145	#146	#147	#148	#149	#150	#151	#152	#153	#154	#155	#156	#157	#158	#159	#160	#161	#162	#163	#164	#165	#166	#167	#168	#169	
5.300270E+2	-7.739600E-3	-1.466420E-3	-1.562968E-2	-1.347818E-2	-1.192403E-2	-1.882286E-2	4.999083E-3	-9.965880E-3	-5.897274E-3	-9.222121E-3	-6.771572E-3	-1.157604E-2	-2.779997E-3	-1.829528E-3	-4.458008E-3	-1.492987E-2	-1.109348E-2	-7.787249E-3	-1.324395E-2	-3.688960E-3	-1.885099E-2	-1.212341E-2	-5.469006E-3	-7.097447E-3	-1.267516E-2	-7.547459E-3	-4.230204E-3	7.043475E-4	-7.081153E-3	3.492013E-3	7.509991E-4	1.272533E-3	-1.142397E-2	-7.235162E-3	-1.207626E-2	-5.926712E-3	-5.945626E-3	-1.500988E-2	-1.411252E-2	-1.011521E-2	-1.683798E-2	-1.079995E-2	-7.042283E-3	-5.940021E-3	-9.646921E-3	-1.621724E-2	-1.451037E-2	-2.401496E-3	-3.242678E-3	-8.398689E-3	-7.691708E-3	-2.609139E-3	-1.088474E-2	1.095731E-2	-1.062990E-2	-1.195187E-2	-5.818447E-3	-1.259255E-2	-6.460235E-3	-1.251600E-2	-3.745291E-3	-5.409502E-3	-4.641134E-3	-7.144335E-3	-6.337409E-3	-4.859673E-3	-7.048063E-3	-1.802437E-2	-2.224945E-2	-9.246202E-3	-1.296867E-2	-1.333099E-2	-1.747363E-2	-9.875464E-3	-8.008302E-3	-1.507390E-2	-2.675689E-3	-4.602736E-4	-6.019127E-3	-1.134863E-2	-9.021527E-3	-5.162497E-3	-5.893609E-3	-9.387912E-3	-3.102188E-3	-1.275486E-2	-9.454675E-3	5.323951E-3	-1.524499E-2	-7.662844E-3	-1.156932E-2	-1.059260E-2	-9.202992E-3	-6.173359E-3	-1.411916E-2	-1.771105E-2	-1.321138E-2	-1.215444E-2	-1.056909E-2	-4.972171E-3	-1.321043E-2	-6.062462E-4	-1.229236E-2	-9.876996E-3	-6.494609E-4	-1.300335E-2	-6.827679E-3	-1.058144E-2	-1.471349E-2	-8.518460E-3	-9.312684E-3	-1.262006E-2	-1.262379E-2	-5.046999E-4	-8.999066E-3	-6.615761E-3	-3.423314E-3	-1.030474E-2	-4.332365E-3	1.224973E-3	2.798448E-4	-1.516100E-3	-1.659790E-2	-1.103433E-2	-1.138159E-3	-1.274928E-2	-4.885451E-3	-6.134286E-3	-1.194976E-2	-6.726418E-3	-7.016103E-3	-1.207738E-3	-9.745794E-3	-1.512270E-2	-2.401978E-2	-5.575530E-3	-1.504561E-2	1.970869E-3	-1.150968E-2	-1.772837E-2	-1.172967E-2	-1.872728E-2	-4.910885E-3	-1.147925E-2	-6.085976E-3	-1.233108E-2	-2.525488E-3	-1.728398E-2	-7.432889E-3	-1.009642E-2	-1.328840E-3	-8.734481E-3	-3.668156E-3	-6.426752E-3	-3.655792E-3	-1.269946E-2	-5.977846E-3	-1.097964E-2	-3.934360E-3	-1.632095E-2	-1.460953E-2	-2.062433E-3	-1.253263E-2	-1.439643E-2	-8.416739E-3	-1.201439E-2	2.103981E-3	-1.437207E-2	-1.310741E-2
5.305230E+2	-9.223910E-3	-9.531762E-3	3.306247E-3	-8.047242E-4	1.515807E-3	-4.777352E-3	-9.998201E-3	-3.681081E-3	-7.167506E-3	-4.440259E-3	-8.774440E-3	-6.926628E-3	-7.227950E-3	-8.814991E-3	-8.837780E-3	-7.162326E-3	-6.240087E-3	-7.787241E-3	-2.943082E-3	3.106522E-3	-2.094562E-3	-1.592329E-2	-1.376354E-2	-6.452253E-4	-1.133548E-3	-4.766793E-3	-6.296088E-3	-1.162175E-2	-5.723165E-3	-1.200919E-2	-9.763016E-3	2.014837E-3	-8.618091E-3	-7.235135E-3	-1.207626E-2	-1.004509E-3	-1.321251E-2	-5.572517E-3	-2.713956E-3	-1.208203E-2	3.720003E-3	-5.674563E-3	-3.098597E-3	-1.161011E-2	1.832897E-3	6.350149E-3	-4.296369E-3	-1.080668E-2	1.150635E-3	9.891745E-3	-9.391937E-3	-7.526355E-3	-4.593562E-3	-5.863127E-3	-9.400002E-3	-5.661376E-3	-5.219475E-3	-1.021016E-2	-1.045028E-2	-7.399979E-3	5.400220E-3	-2.079283E-2	-1.044258E-2	-9.287570E-3	-1.337894E-2	-1.131127E-2	-6.523208E-3	-1.027088E-2	-2.959766E-3	-1.849270E-3	-7.149359E-3	-6.621958E-3	-3.458296E-3	1.334522E-3	-5.370254E-3	-1.101555E-2	-1.141634E-2	-1.721442E-2	-8.327845E-3	9.916243E-4	4.163798E-3	-6.347322E-3	-2.678904E-3	-5.444993E-3	-1.430999E-2	-1.343126E-2	-6.500085E-3	-5.414193E-3	-7.225955E-3	4.111748E-3	-4.665197E-4	-4.996512E-3	-1.302305E-3	2.706133E-3	-5.192219E-3	3.176435E-3	-1.250000E-2	-4.369239E-3	-7.723572E-3	1.292728E-3	-1.105990E-2	-3.031053E-3	-2.408621E-3	-7.165660E-3	-8.443116E-3	8.071039E-4	-2.048298E-3	-7.704942E-3	-7.789540E-4	-2.672449E-3	-6.428224E-3	-7.929416E-3	-1.194411E-2	-5.804168E-3	-6.788760E-3	-5.903313E-3	-9.766399E-3	-7.838640E-3	-6.151982E-3	-6.635355E-3	-8.861107E-3	-1.010512E-4	-2.691631E-4	-8.868745E-3	-9.105542E-3	-5.737213E-3	-1.684556E-4	-1.533570E-3	-3.370427E-3	5.174243E-4	-4.704917E-3	-1.912223E-3	-4.119335E-3	5.207839E-3	-6.093240E-3	-1.942448E-2	-8.230808E-3	-1.872331E-2	-1.083829E-2	5.007954E-4	-7.168111E-3	-6.000016E-3	4.638051E-3	-1.670556E-2	-2.594019E-3	6.587851E-3	-1.227902E-2	2.254461E-3	-8.209407E-3	-1.009642E-2	-5.049623E-3	9.706833E-5	-1.156884E-2	-4.284883E-4	-1.264698E-2	-1.649842E-2	-1.472162E-2	-7.666826E-3	-7.292946E-3	-8.387171E-3	-2.213555E-3	-9.594715E-3	-3.112104E-3	-1.721536E-2	-6.452831E-3	-5.875639E-3	-1.402663E-2	-1.517050E-2	1.438656E-3
5.310050E+2	-1.367683E-2	-5.865715E-3	-5.811046E-3	-1.066185E-2	-1.050928E-2	-4.108539E-3	-1.062309E-2	8.979705E-5	-4.627104E-3	-8.624374E-3	5.722273E-4	-9.488670E-4	-9.451924E-3	-1.829518E-3	-1.173174E-3	-2.219335E-3	-3.466731E-3	9.112563E-4	-1.553305E-2	-5.048052E-3	-1.186912E-2	3.076087E-3	-4.830934E-3	1.526408E-8	1.751876E-3	-6.435212E-3	-4.918834E-3	-7.307654E-3	-7.081178E-3	-3.066181E-3	-1.326767E-2	-1.580065E-2	-8.618117E-3	-9.646854E-3	-6.038115E-3	-1.225512E-2	-7.927534E-3	1.348179E-3	2.352088E-3	-3.559069E-3	-7.929496E-3	1.372900E-3	-5.727689E-3	-4.680042E-3	-5.595207E-3	-3.907765E-3	-6.566139E-3	-1.004257E-2	-6.903761E-3	-3.172827E-3	-2.590891E-3	-7.526326E-3	-5.991625E-3	-1.393696E-2	-5.710256E-3	-4.403295E-3	-8.813204E-3	-9.614554E-3	-7.125227E-3	-1.644413E-3	-1.654908E-2	-3.042858E-3	-8.702105E-3	-1.214535E-2	-1.760384E-2	-6.032679E-3	-4.948642E-3	-1.238545E-2	-1.439067E-2	-3.082082E-3	-9.477103E-3	-5.402121E-3	-2.184219E-3	-9.252654E-3	-6.029756E-3	-5.604452E-3	3.567637E-3	-6.259790E-3	-1.005939E-2	-4.407229E-3	6.840487E-9	-9.901811E-3	-3.214694E-3	-7.416442E-3	-7.305101E-3	-8.696458E-3	5.909415E-4	-5.414164E-3	-8.459620E-3	-8.971119E-3	-4.664987E-4	-4.996503E-3	5.209115E-4	-9.133246E-3	-1.029331E-2	-1.029933E-2	-1.117912E-3	-6.037482E-3	-7.723616E-3	-6.364389E-3	-1.679469E-2	-1.151813E-2	-1.229234E-2	-1.123271E-2	-8.443122E-3	-3.587101E-3	-1.100964E-2	-1.058149E-2	-4.414048E-3	-7.349269E-3	-7.581998E-3	-2.456998E-3	2.330565E-3	8.407963E-5	-5.683628E-3	-1.302803E-2	-9.766431E-3	-3.522970E-3	-5.545449E-3	-1.663944E-2	2.798118E-4	-1.142108E-2	-7.177475E-3	-1.392181E-2	-9.769537E-3	-5.737161E-3	-1.255055E-2	-8.434707E-3	-9.089997E-3	-1.578129E-2	4.952268E-4	-5.434768E-3	-6.229287E-3	-6.009021E-3	-5.475093E-3	-7.463994E-3	-8.230797E-3	-6.460128E-3	-1.285246E-2	-1.282049E-2	-1.042635E-2	-1.045455E-2	-1.318660E-2	7.466182E-3	-6.086018E-3	3.631775E-3	-5.573428E-3	-8.266238E-3	-1.053916E-2	-1.073313E-2	-1.125088E-2	-1.281058E-2	-2.351417E-3	-1.167523E-2	-8.497156E-3	-2.822079E-3	-4.728789E-3	-9.654512E-3	-8.636428E-3	-5.213648E-3	-8.411551E-3	-2.690099E-3	-7.233569E-3	-7.349237E-3	-5.611019E-4	-5.261769E-3	-1.262401E-2	-9.581407E-3	-4.156006E-3
5.315080E+2	-1.145038E-2	-5.132484E-3	-1.603036E-3	-4.325073E-3	5.052549E-3	2.579803E-3	-5.624002E-3	-2.424156E-3	-2.086736E-3	-1.221071E-2	1.907488E-3	2.372120E-3	-3.891953E-3	-2.411632E-3	2.111693E-3	-7.868465E-3	-4.160055E-3	-4.307855E-3	-4.087637E-3	-1.116398E-2	6.982043E-4	-1.339004E-2	-6.106983E-3	-3.226069E-3	-1.267520E-2	3.575092E-3	-1.042796E-2	-4.226076E-3	-3.007095E-3	-7.239572E-3	2.503336E-3	-1.580061E-2	-1.603351E-3	6.029492E-4	6.038056E-4	-7.332984E-3	-1.981879E-2	-1.186409E-2	-7.780003E-3	-5.525899E-3	-4.503180E-3	-1.272197E-2	-8.356781E-3	-5.310065E-3	-8.296382E-3	-2.540077E-3	8.106503E-4	1.419088E-3	-1.642259E-2	-1.493094E-2	-7.691672E-3	-9.633689E-3	-2.496533E-3	-8.554406E-3	-3.250428E-3	-5.661384E-3	-1.625730E-3	2.297279E-3	-7.125221E-3	-6.760480E-3	-5.574423E-3	-1.859506E-3	-4.641187E-3	-4.286603E-3	-5.633240E-3	-1.072479E-2	-3.374068E-3	5.941028E-3	1.326817E-3	-4.314889E-3	-1.912050E-3	8.714668E-5	4.186361E-3	-3.647686E-3	-4.710769E-3	-4.927996E-3	-3.924375E-3	-6.904166E-3	9.070210E-4	-1.366241E-2	-2.775861E-3	1.354090E-3	-4.286254E-3	-7.416412E-3	-3.002115E-4	1.449417E-3	5.909225E-4	9.023467E-4	-7.225916E-3	-7.008674E-3	4.758349E-3	1.998641E-3	6.598378E-3	9.302582E-4	-7.742777E-3	-2.887677E-3	8.841451E-3	-3.257073E-3	8.211397E-3	-1.491622E-3	-8.192544E-3	-6.668370E-3	-1.112958E-2	5.035324E-3	-1.948455E-3	-1.076098E-3	2.133643E-3	1.643740E-3	-7.443326E-3	-3.841655E-3	-3.543746E-3	-1.675233E-3	-2.427665E-3	-2.271171E-3	-4.025885E-3	-1.231553E-2	-7.652047E-3	6.341358E-3	-6.151959E-3	4.083322E-3	-6.249408E-3	-1.071357E-2	4.127061E-3	1.237482E-3	-8.441653E-3	5.099704E-3	-9.602420E-3	-3.067135E-3	-1.051987E-2	-4.915490E-3	-3.549318E-3	-6.843787E-3	-3.416076E-3	-7.411109E-3	5.651733E-3	8.990932E-5	-6.372245E-3	-1.029235E-2	1.918264E-3	-1.071716E-2	-2.355241E-8	-2.727277E-4	-9.367036E-3	9.332544E-4	-7.482794E-3	-2.280424E-3	-8.011846E-3	1.502934E-3	-5.103200E-3	-6.276129E-3	-6.289851E-3	-7.375752E-3	-6.301744E-3	-4.284262E-4	2.568886E-3	4.775852E-3	-4.104208E-3	-4.353975E-3	-9.308139E-3	1.926810E-3	-1.593780E-3	-7.083944E-3	-3.112123E-3	3.926302E-3	-1.365381E-2	-1.017274E-2	-7.013163E-4	-9.581407E-3	-3.037092E-3
5.320120E+2	3.392686E-3	-5.132488E-3	-1.603040E-3	-5.733257E-3	-1.050931E-2	1.910929E-3	-3.124423E-3	8.979994E-5	-3.992005E-3	5.721128E-3	-1.430616E-3	3.700548E-3	1.111963E-3	2.245333E-3	-1.048021E-2	4.842138E-3	-6.933459E-3	-6.627455E-3	6.213224E-3	1.067863E-3	-1.396366E-3	1.130914E-2	-1.640707E-3	-9.033113E-3	-5.461657E-3	-1.144038E-2	4.722102E-3	1.936960E-3	-5.723165E-3	-6.813762E-4	-2.169576E-3	1.092258E-2	-3.006318E-3	2.411702E-3	-9.661004E-3	1.808160E-3	4.624400E-3	5.752306E-3	4.885113E-3	6.275165E-3	1.664253E-3	2.654245E-3	-5.727701E-3	-5.310062E-3	4.823729E-4	1.953755E-4	1.499675E-2	6.549765E-4	2.615035E-3	-5.785733E-3	8.744210E-3	-1.033619E-2	-1.797493E-3	2.883502E-3	2.284107E-3	1.258123E-3	-2.224688E-3	-8.508532E-5	9.500320E-3	-1.644410E-3	-9.232625E-3	6.423800E-3	-1.160291E-3	-5.715434E-3	2.816638E-3	1.591946E-3	1.874506E-3	9.465309E-3	2.041217E-3	-9.862595E-3	5.652992E-3	5.576369E-3	-3.458296E-3	3.825610E-3	-2.732241E-3	4.541501E-3	5.440590E-3	-3.682233E-3	-7.173477E-3	4.847947E-3	-9.715479E-3	4.908604E-3	-3.214696E-3	1.126551E-3	-1.701213E-3	-1.256192E-3	-8.272841E-3	-4.150868E-3	-1.674324E-3	6.074194E-3	-1.418174E-2	7.594657E-3	5.209339E-4	-1.209302E-2	1.821840E-3	-8.278012E-3	-2.540619E-3	-2.144897E-3	-4.308947E-3	-4.972152E-3	8.294962E-3	6.062167E-3	-8.306170E-5	-2.420824E-3	-3.247342E-3	-3.587150E-3	-2.560327E-4	3.801120E-3	6.491266E-3	-5.595429E-3	-2.966853E-3	-3.238792E-3	-5.146620E-3	-2.860021E-3	3.710127E-3	8.346057E-3	1.067258E-2	2.025750E-3	-6.151982E-3	-7.349951E-3	-7.555263E-3	1.313933E-3	-7.805500E-3	5.156303E-4	-1.138208E-3	-3.187323E-3	8.675865E-3	-7.668047E-4	-5.106813E-4	-3.104532E-3	-5.282701E-3	-1.912243E-3	-6.932589E-3	-2.503777E-3	2.560928E-3	1.348932E-3	-2.655085E-3	1.193479E-2	5.754627E-4	-9.014686E-4	2.606615E-3	-9.090788E-4	1.818774E-4	-9.519359E-3	1.596329E-3	-5.827688E-3	1.741712E-3	-7.514602E-4	8.875040E-3	4.547927E-3	-6.289871E-3	1.028726E-2	-3.009773E-3	4.070271E-3	-5.730635E-3	-5.426876E-4	4.639563E-3	-2.366301E-3	4.798008E-3	-6.800397E-3	-2.833364E-3	-7.711601E-3	3.953273E-3	6.040451E-3	2.057433E-3	7.015681E-3	-2.104008E-3	7.984502E-3	4.795351E-3
5.325120E+2	1.675147E-2	3.666042E-3	1.031961E-2	1.468521E-2	1.010373E-4	8.599252E-3	6.873766E-3	5.746089E-3	4.899288E-3	1.050294E-2	-1.430613E-3	-2.277277E-3	2.779976E-3	1.663214E-3	3.754098E-3	1.260973E-2	1.386687E-2	4.970570E-3	1.193589E-2	3.106475E-3	2.094565E-3	6.242676E-3	1.048221E-2	1.290458E-3	2.194967E-2	1.136093E-2	2.656164E-3	1.320649E-3	6.499171E-3	5.110548E-4	1.919243E-3	-1.696724E-3	1.172461E-2	3.014638E-3	1.328389E-2	1.094927E-2	1.717628E-2	3.235673E-3	4.885110E-3	1.217570E-2	1.194318E-2	7.779631E-3	-4.694807E-4	4.770029E-3	3.183507E-3	4.982410E-3	-3.161481E-3	5.239584E-3	3.347299E-3	4.012730E-3	1.376422E-3	3.010537E-3	5.192737E-3	4.229168E-3	1.027845E-2	6.919465E-3	6.759615E-3	6.466435E-3	2.185049E-3	2.201717E-2	1.149724E-2	5.071302E-4	8.702122E-3	1.071649E-2	1.760384E-2	9.216611E-3	7.123019E-3	6.645878E-3	5.613383E-3	4.314887E-3	9.976152E-4	6.186292E-3	4.823469E-3	5.071165E-3	1.224800E-3	9.276260E-3	4.816257E-3	3.406072E-3	1.187331E-2	-5.509032E-4	-3.469816E-3	1.946498E-3	2.143123E-3	5.726599E-3	9.506665E-3	6.184167E-3	1.772752E-3	3.428998E-3	6.961579E-3	3.457665E-3	6.064564E-3	5.496165E-3	-9.203006E-3	-2.536944E-4	1.011112E-2	8.566770E-3	1.016280E-3	1.286938E-2	4.796767E-3	-4.972149E-3	1.044544E-2	-1.818669E-3	5.730894E-3	3.679675E-3	9.742064E-3	7.712316E-3	5.120764E-3	1.099237E-2	9.520499E-3	6.681136E-3	7.417158E-3	1.474200E-2	9.127983E-3	5.383580E-3	3.710148E-3	4.783777E-3	1.007216E-4	-2.906479E-3	1.325707E-2	7.656168E-3	1.585664E-3	4.143959E-3	1.605960E-2	1.423119E-2	8.821003E-3	1.083689E-2	1.010788E-3	1.533599E-3	2.236749E-2	9.572253E-3	5.695431E-3	5.132831E-3	-6.028190E-4	2.403607E-3	8.742475E-3	7.014366E-3	1.345252E-2	5.036670E-3	9.303684E-3	6.810924E-3	1.238130E-2	7.363649E-3	7.821037E-3	1.138591E-2	-4.988497E-4	-5.067835E-4	8.447256E-3	6.763283E-3	1.109410E-3	1.537202E-2	7.973085E-3	1.096659E-2	8.841255E-3	4.070282E-3	6.027104E-3	-5.427051E-4	3.390443E-3	1.684805E-2	8.828325E-3	1.779436E-2	3.984430E-3	7.352978E-3	5.130782E-3	6.745204E-3	9.913058E-3	5.787959E-3	-2.103973E-3	1.037985E-2	3.197007E-4
5.330230E+2	2.194657E-2	2.346283E-2	1.102094E-2	2.031787E-2	2.627323E-2	1.461877E-2	1.749687E-2	1.014543E-2	1.887134E-2	1.827339E-2	1.592752E-2	1.565614E-2	1.945989E-2	1.097712E-2	1.908338E-2	1.472813E-2	1.802695E-2	2.062797E-2	1.765860E-2	1.262014E-2	3.141827E-2	2.080884E-2	2.132896E-2	1.871138E-2	8.244019E-3	1.525381E-2	1.849482E-2	1.919352E-2	2.211659E-2	1.899325E-2	2.002668E-2	1.908804E-2	2.154524E-2	1.808786E-2	2.596394E-2	1.376189E-2	2.510379E-2	2.211033E-2	1.248417E-2	1.283134E-2	1.194322E-2	1.738970E-2	3.042253E-2	2.808027E-2	1.803973E-2	1.113714E-2	1.272696E-2	1.593710E-2	1.945606E-2	1.838372E-2	1.724558E-2	3.462116E-2	2.057121E-2	1.028452E-2	1.642802E-2	1.950033E-2	1.694193E-2	2.373863E-2	1.947560E-2	7.948114E-3	1.820396E-2	2.417376E-2	2.088517E-2	2.786280E-2	2.253295E-2	2.211985E-2	1.289646E-2	1.862849E-2	3.061847E-2	2.404015E-2	2.485657E-2	1.350526E-2	1.756461E-2	1.254451E-2	2.562652E-2	2.280414E-2	4.191922E-3	3.111481E-2	1.879950E-2	2.412960E-2	2.081888E-2	1.320244E-2	1.714503E-2	2.281261E-2	1.721204E-2	2.850519E-2	2.127298E-2	5.323931E-3	3.286922E-2	9.999031E-3	1.586116E-2	5.496149E-3	1.206808E-2	2.401693E-2	2.541450E-2	2.743287E-2	1.951218E-2	1.509375E-2	1.731707E-2	2.147975E-2	3.051716E-2	1.758030E-2	3.247508E-2	2.198119E-2	1.298943E-2	1.273428E-2	1.288724E-2	1.243064E-2	1.133805E-2	2.129613E-2	2.241635E-2	1.317850E-2	2.068363E-2	5.972400E-3	1.807706E-2	2.473279E-2	1.983489E-2	1.620572E-2	1.507667E-2	1.766029E-2	2.052046E-2	1.829391E-2	1.166338E-2	1.784059E-2	2.077210E-2	1.147438E-2	1.752022E-2	1.840290E-2	1.307324E-2	2.043806E-2	1.436238E-2	1.217793E-2	3.104590E-2	2.343516E-2	1.863298E-2	2.401079E-2	2.708203E-2	1.653347E-2	2.340302E-2	3.485576E-2	1.433624E-2	2.900000E-2	1.482355E-2	1.791882E-2	2.115133E-2	1.072635E-2	1.820081E-2	1.578100E-2	2.130021E-2	1.728215E-2	2.223598E-2	7.569886E-3	1.805868E-2	1.081834E-2	2.193457E-2	2.832950E-2	2.150245E-2	1.817320E-2	1.554554E-2	1.700100E-2	2.567735E-2	2.178981E-2	1.690638E-2	2.224907E-2	1.711399E-2	2.052091E-2	2.945596E-2	3.034103E-2	1.374680E-2
5.331580E+2	2.788386E-2	3.079500E-2	2.294358E-2	3.228725E-2	2.061439E-2	3.334606E-2	9.373319E-3	2.397194E-2	3.093811E-2	2.604385E-2	4.062951E-2	2.761173E-2	2.779986E-2	2.145530E-2	2.674801E-2	1.825886E-2	2.288038E-2	2.758677E-2	2.452586E-2	2.145419E-2	3.211651E-2	2.777526E-2	3.345186E-2	2.774450E-2	2.483510E-2	1.636609E-2	3.571078E-2	3.090334E-2	3.433907E-2	1.720464E-2	2.002670E-2	2.873809E-2	1.593347E-2	1.989663E-2	3.320969E-2	1.376194E-2	1.519443E-2	3.343519E-2	2.831554E-2	6.275141E-3	2.085165E-2	3.660996E-2	2.450703E-2	1.989019E-2	2.681847E-2	2.002740E-2	3.655962E-2	2.052176E-2	3.043937E-2	2.556925E-2	1.271153E-2	2.970400E-2	3.315357E-2	2.239526E-2	2.319248E-2	3.208123E-2	2.772312E-2	2.016508E-2	3.743111E-2	3.544671E-2	3.710480E-2	2.062377E-2	2.146525E-2	3.286390E-2	2.112461E-2	1.390866E-2	2.811722E-2	1.862856E-2	2.275974E-2	3.143709E-2	2.602045E-2	2.692340E-2	2.329814E-2	1.565838E-2	2.232899E-2	2.483332E-2	2.417056E-2	3.111482E-2	2.572560E-2	2.952843E-2	2.428862E-2	2.682804E-2	2.143129E-2	1.755537E-2	1.300908E-2	3.188717E-2	2.954586E-2	2.869516E-2	2.855126E-2	1.784881E-2	2.696395E-2	3.277701E-2	2.726167E-2	3.230443E-2	8.835857E-3	2.675904E-2	6.707337E-3	1.787416E-2	9.918719E-3	8.253756E-3	7.578078E-3	3.576688E-2	1.735883E-2	1.452504E-2	2.208200E-2	4.035512E-2	2.722540E-2	2.106020E-2	3.436041E-2	1.369631E-2	3.049283E-2	2.959574E-2	2.748111E-2	2.422608E-2	1.697187E-2	3.755730E-2	1.913004E-2	2.422055E-2	2.478121E-2	1.337275E-2	2.182634E-2	2.749140E-2	1.354743E-2	1.784055E-2	1.147685E-2	2.422367E-2	1.339284E-2	3.143828E-2	2.880196E-2	3.371852E-2	1.609574E-2	3.190414E-2	3.385914E-2	3.815727E-2	2.172378E-2	2.401077E-2	2.584301E-2	2.266501E-2	2.138884E-2	2.153445E-2	2.345935E-2	7.999965E-3	1.736993E-2	2.706487E-2	3.721446E-2	2.018583E-2	2.307760E-2	3.531939E-2	2.518306E-2	2.683282E-2	2.099577E-2	1.708073E-2	2.464256E-2	2.731363E-2	3.161743E-2	3.060894E-2	2.212704E-2	3.009939E-2	2.360621E-2	3.207523E-2	3.435455E-2	2.430054E-2	1.690640E-2	3.563878E-2	1.056768E-2	3.402615E-2	1.051996E-2	2.315505E-2	3.724424E-2
5.333080E+2	4.272691E-2	3.152820E-2	2.574893E-2	2.243012E-2	5.173812E-2	3.133960E-2	2.562039E-2	2.962831E-2	4.046448E-2	3.500983E-2	2.994749E-2	1.632037E-2	4.559175E-2	3.775464E-2	3.167522E-2	4.721073E-2	2.842713E-2	3.338580E-2	4.741664E-2	2.281329E-2	2.792739E-2	3.284175E-2	2.834748E-2	3.484193E-2	3.926216E-2	2.748866E-2	4.466304E-2	3.213590E-2	3.841305E-2	2.555146E-2	3.346127E-2	3.838814E-2	2.645550E-2	1.929370E-2	3.019059E-2	3.415370E-2	4.360134E-2	3.343520E-2	4.224715E-2	3.315536E-2	2.564856E-2	3.020315E-2	3.370893E-2	2.115021E-2	2.816904E-2	1.797577E-2	2.577820E-2	1.975774E-2	4.361924E-2	3.471443E-2	3.764879E-2	2.829907E-2	3.944479E-2	3.719720E-2	2.934196E-2	3.711358E-2	2.233249E-2	2.195181E-2	4.541132E-2	3.544672E-2	2.978834E-2	2.476546E-2	2.610644E-2	2.714841E-2	3.872846E-2	3.209050E-2	3.021667E-2	3.413553E-2	3.847720E-2	4.992955E-2	3.300354E-2	3.607215E-2	3.603935E-2	3.434164E-2	2.430749E-2	3.159723E-2	3.103818E-2	2.789287E-2	3.380609E-2	4.341116E-2	3.261622E-2	3.038255E-2	2.839644E-2	3.858428E-2	2.701889E-2	2.309401E-2	3.190951E-2	4.259159E-2	2.485019E-2	4.336044E-2	3.871991E-2	3.767363E-2	4.306304E-2	2.756873E-2	2.350155E-2	3.080181E-2	1.737806E-2	2.899590E-2	2.414636E-2	2.217578E-2	2.406551E-2	3.758555E-2	2.491693E-2	2.740391E-2	2.727776E-2	3.972737E-2	4.813522E-2	1.674542E-2	4.284230E-2	2.948055E-2	1.607058E-2	3.663170E-2	4.175567E-2	3.305856E-2	2.912850E-2	2.900763E-2	3.604505E-2	2.113794E-2	1.871588E-2	1.551657E-2	2.900853E-2	4.376390E-2	2.547994E-2	2.433742E-2	2.209997E-2	3.824790E-2	1.869945E-2	3.757256E-2	3.237671E-2	4.035873E-2	1.494014E-2	3.190418E-2	4.018884E-2	3.605412E-2	3.037791E-2	3.030573E-2	2.956014E-2	3.339538E-2	3.615960E-2	3.485576E-2	3.584059E-2	1.563632E-2	3.201163E-2	4.078397E-2	3.302405E-2	2.255064E-2	2.612560E-2	4.584001E-2	3.139558E-2	3.765689E-2	2.347622E-2	4.289596E-2	2.464256E-2	4.380888E-2	2.815928E-2	5.264298E-2	3.836546E-2	3.672507E-2	3.368199E-2	2.652159E-2	2.815650E-2	2.053444E-2	2.985951E-2	5.325683E-2	4.133548E-2	3.095676E-2	3.506661E-2	3.672871E-2	2.157926E-2
5.334580E+2	4.643766E-2	3.739393E-2	4.608751E-2	3.299137E-2	5.173809E-2	3.936558E-2	3.749330E-2	3.717003E-2	4.618040E-2	3.680301E-2	4.930853E-2	4.886613E-2	3.558381E-2	3.950101E-2	4.098229E-2	4.438617E-2	5.061409E-2	3.512551E-2	5.313935E-2	3.572466E-2	2.862555E-2	3.030850E-2	5.195513E-2	5.161763E-2	4.863974E-2	5.307063E-2	6.256767E-2	4.384573E-2	3.365990E-2	3.866795E-2	3.871827E-2	6.882290E-2	6.363364E-2	4.461666E-2	3.260589E-2	3.626315E-2	5.285017E-2	4.601834E-2	5.491227E-2	3.446664E-2	4.552125E-2	5.134542E-2	4.488263E-2	4.950049E-2	3.762296E-2	6.311077E-2	6.152721E-2	4.268093E-2	6.265689E-2	3.471442E-2	3.991578E-2	4.656293E-2	4.154184E-2	4.325261E-2	3.795131E-2	4.277499E-2	3.371264E-2	4.041521E-2	4.607638E-2	3.928376E-2	4.807947E-2	3.186541E-2	5.395326E-2	4.929577E-2	4.154511E-2	4.206118E-2	4.228838E-2	3.695500E-2	4.919372E-2	4.006690E-2	4.173249E-2	4.034154E-2	2.839463E-2	4.306050E-2	3.024301E-2	2.753888E-2	5.226559E-2	4.013627E-2	4.765830E-2	4.958133E-2	4.233169E-2	3.452948E-2	3.321851E-2	3.135563E-2	3.472428E-2	4.609145E-2	3.368230E-2	4.890809E-2	3.965459E-2	3.289415E-2	5.635380E-2	4.187064E-2	4.488635E-2	3.881604E-2	2.924031E-2	4.697275E-2	4.654472E-2	3.066410E-2	3.666667E-2	2.426412E-2	3.051717E-2	3.819174E-2	4.235883E-2	4.163841E-2	3.182408E-2	5.228236E-2	4.275835E-2	4.838713E-2	3.981308E-2	3.883417E-2	3.395418E-2	5.383074E-2	3.971650E-2	4.306865E-2	4.073254E-2	4.966922E-2	3.181637E-2	6.244490E-2	4.540332E-2	5.267459E-2	3.162019E-2	5.649887E-2	4.494885E-2	5.249049E-2	3.936265E-2	4.589747E-2	3.992585E-2	4.907433E-2	3.809622E-2	5.484658E-2	3.458521E-2	6.501609E-2	4.862854E-2	4.236356E-2	4.892263E-2	3.093528E-2	3.079921E-2	4.489212E-2	3.011699E-2	5.098153E-2	4.952521E-2	1.945447E-2	3.519459E-2	4.209052E-2	4.280156E-2	4.442565E-2	3.953670E-2	5.110039E-2	5.080984E-2	4.466072E-2	3.711906E-2	3.270574E-2	2.727612E-2	5.580546E-2	4.545007E-2	5.644200E-2	3.961459E-2	5.262665E-2	4.577295E-2	4.476932E-2	5.294843E-2	4.062049E-2	4.163515E-2	4.057181E-2	4.395396E-2	3.709552E-2	3.787198E-2	3.832554E-2	3.164960E-2
5.336130E+2	6.944444E-2	5.645766E-2	5.239952E-2	6.326692E-2	6.376314E-2	7.615138E-2	5.311552E-2	4.408334E-2	4.745062E-2	5.712579E-2	6.533145E-2	6.480694E-2	4.559186E-2	5.114352E-2	6.123885E-2	5.709675E-2	5.754754E-2	5.832159E-2	6.229566E-2	6.698372E-2	6.004389E-2	4.930785E-2	7.364872E-2	6.258642E-2	6.883773E-2	7.142293E-2	8.047226E-2	5.370663E-2	5.810475E-2	6.370834E-2	6.909223E-2	7.476148E-2	5.170861E-2	6.089585E-2	5.373935E-2	6.790555E-2	6.870525E-2	7.118460E-2	7.517651E-2	5.216818E-2	5.237397E-2	6.223682E-2	5.474176E-2	4.446042E-2	7.003656E-2	6.994933E-2	6.776911E-2	7.248124E-2	5.460255E-2	5.496450E-2	5.578496E-2	5.990970E-2	6.321151E-2	5.940025E-2	6.377942E-2	6.227543E-2	6.066573E-2	6.185652E-2	6.403192E-2	4.823680E-2	4.990862E-2	6.381551E-2	7.715885E-2	5.786895E-2	4.436172E-2	6.786755E-2	4.806178E-2	5.951067E-2	7.419897E-2	5.547731E-2	7.373850E-2	5.802905E-2	6.470696E-2	5.240215E-2	5.860185E-2	5.391824E-2	5.913310E-2	5.624598E-2	6.785955E-2	6.963416E-2	5.551702E-2	4.637783E-2	5.679300E-2	4.712732E-2	5.854100E-2	4.609141E-2	6.559178E-2	5.080310E-2	4.705672E-2	5.448087E-2	5.700691E-2	5.166382E-2	6.676507E-2	5.598309E-2	5.092003E-2	5.573200E-2	4.156506E-2	6.402933E-2	5.317071E-2	4.445110E-2	6.349212E-2	6.668385E-2	5.340535E-2	5.858429E-2	5.455555E-2	6.044312E-2	7.681154E-2	5.629750E-2	5.556521E-2	5.578761E-2	6.049123E-2	5.148541E-2	6.282776E-2	6.014468E-2	5.786247E-2	6.534354E-2	6.282718E-2	4.826492E-2	6.723854E-2	5.910577E-2	5.316668E-2	6.215883E-2	4.808904E-2	6.764981E-2	6.459259E-2	6.502143E-2	5.525608E-2	5.214155E-2	5.096515E-2	6.329772E-2	5.191908E-2	8.051529E-2	4.792524E-2	8.022046E-2	5.510418E-2	5.800371E-2	6.239490E-2	4.335925E-2	8.114343E-2	5.098158E-2	4.757028E-2	5.381820E-2	7.211718E-2	5.515632E-2	7.632455E-2	6.807420E-2	6.209177E-2	6.913588E-2	6.556470E-2	5.548483E-2	5.696310E-2	6.259699E-2	5.690370E-2	7.305054E-2	6.689061E-2	8.607405E-2	5.397932E-2	7.714153E-2	5.853564E-2	6.222377E-2	3.497431E-2	6.133415E-2	5.458826E-2	5.678045E-2	3.937156E-2	6.165055E-2	6.452259E-2	5.668986E-2	6.857414E-2
5.337740E+2	9.319343E-2	7.478795E-2	6.993286E-2	7.734861E-2	8.144708E-2	8.350850E-2	7.686127E-2	6.670855E-2	6.967887E-2	6.549397E-2	8.335722E-2	1.079798E-1	8.284365E-2	8.024939E-2	8.696995E-2	8.039951E-2	7.904121E-2	9.311569E-2	1.006379E-1	6.630428E-2	8.517884E-2	8.287347E-2	1.246922E-1	9.033079E-2	1.142828E-1	7.253503E-2	8.804727E-2	7.959140E-2	1.069938E-1	9.471094E-2	7.259673E-2	8.515378E-2	7.134982E-2	7.114565E-2	8.211852E-2	6.649937E-2	1.043790E-1	8.943010E-2	1.068393E-1	7.445925E-2	7.156139E-2	9.747398E-2	9.417828E-2	7.344085E-2	8.016605E-2	8.362630E-2	1.046529E-1	9.540462E-2	1.058581E-1	8.370646E-2	9.262422E-2	9.643746E-2	1.100460E-1	7.554809E-2	8.653257E-2	8.303359E-2	8.642080E-2	7.674653E-2	1.325290E-1	7.829329E-2	8.405177E-2	8.215692E-2	8.063991E-2	8.644634E-2	8.942770E-2	8.253033E-2	6.748151E-2	8.136153E-2	7.277002E-2	7.828462E-2	8.479506E-2	7.754627E-2	8.381881E-2	7.793604E-2	7.640859E-2	8.367953E-2	7.411704E-2	9.684254E-2	7.940308E-2	1.035698E-1	6.731435E-2	8.606971E-2	7.876002E-2	5.895595E-2	9.006316E-2	7.855838E-2	7.150103E-2	7.796435E-2	8.715179E-2	7.803020E-2	9.358106E-2	5.865893E-2	8.195874E-2	8.735733E-2	7.833854E-2	8.268364E-2	9.705282E-2	7.959960E-2	6.227641E-2	7.159908E-2	7.352792E-2	9.153905E-2	9.875409E-2	7.078536E-2	7.403961E-2	7.425331E-2	6.964242E-2	6.564619E-2	8.404003E-2	8.501748E-2	7.895184E-2	8.666513E-2	7.914153E-2	6.662172E-2	8.051792E-2	9.312977E-2	7.057993E-2	7.600855E-2	8.543453E-2	8.268690E-2	8.254833E-2	8.338391E-2	7.258204E-2	9.435925E-2	5.463342E-2	9.306984E-2	7.648259E-2	9.431474E-2	1.017259E-1	8.925498E-2	7.445321E-2	7.981078E-2	9.645349E-2	7.811727E-2	6.252210E-2	7.562945E-2	9.213205E-2	9.777735E-2	1.039708E-1	8.253199E-2	8.536582E-2	8.500004E-2	1.077665E-1	6.887533E-2	8.959393E-2	7.989845E-2	9.379090E-2	7.589911E-2	7.876640E-2	8.986720E-2	8.858968E-2	7.890139E-2	6.875465E-2	1.022922E-1	8.487313E-2	7.695633E-2	7.396494E-2	8.906781E-2	1.008541E-1	9.157887E-2	8.021973E-2	5.631274E-2	6.871899E-2	7.228431E-2	8.257738E-2	8.252227E-2	8.275732E-2	9.501548E-2	1.110933E-1
5.339090E+2	1.251062E-1	1.297791E-1	1.057009E-1	8.086903E-2	9.983848E-2	1.008983E-1	8.810931E-2	1.138446E-1	1.141353E-1	9.358711E-2	1.047211E-1	1.033305E-1	9.952349E-2	9.480241E-2	1.017518E-1	1.241804E-1	1.268819E-1	1.099327E-1	1.166613E-1	1.179497E-1	1.333534E-1	9.553945E-2	1.891352E-1	1.296893E-1	1.525145E-1	1.353777E-1	1.603541E-1	1.042435E-1	1.334759E-1	1.102122E-1	1.216624E-1	1.289501E-1	1.499147E-1	1.217916E-1	1.171399E-1	1.129079E-1	1.341072E-1	1.290670E-1	1.321694E-1	1.354313E-1	1.161038E-1	1.250227E-1	1.073239E-1	1.011610E-1	1.335135E-1	1.397033E-1	1.358624E-1	1.404868E-1	1.234311E-1	1.124487E-1	1.090600E-1	1.364776E-1	1.296187E-1	1.260092E-1	1.228146E-1	1.069373E-1	1.145718E-1	1.059306E-1	1.524798E-1	1.115477E-1	1.169758E-1	1.075988E-1	1.084867E-1	1.428862E-1	1.154816E-1	9.836628E-2	1.094696E-1	1.166046E-1	1.320679E-1	1.208172E-1	1.133096E-1	1.202406E-1	1.086642E-1	1.040925E-1	1.186171E-1	1.093825E-1	1.184446E-1	1.077975E-1	1.238458E-1	1.606438E-1	9.368471E-2	1.133208E-1	9.269057E-2	8.589940E-2	1.440007E-1	1.015556E-1	9.927434E-2	1.063886E-1	9.702134E-2	1.081208E-1	1.327671E-1	1.083242E-1	1.014065E-1	1.210995E-1	1.172344E-1	1.224371E-1	1.119921E-1	1.257548E-1	1.038210E-1	1.008353E-1	1.215563E-1	1.079070E-1	1.150335E-1	9.789887E-2	1.208016E-1	1.207069E-1	1.138517E-1	1.138276E-1	1.288729E-1	1.095707E-1	1.274107E-1	1.077733E-1	1.185669E-1	8.958610E-2	1.086993E-1	1.159289E-1	1.304873E-1	1.210146E-1	1.224332E-1	1.227033E-1	1.262942E-1	1.230040E-1	1.303607E-1	1.232342E-1	1.197005E-1	1.243054E-1	1.248317E-1	1.280535E-1	1.338987E-1	1.230597E-1	9.929842E-2	1.129226E-1	1.400581E-1	1.166752E-1	1.144473E-1	1.209533E-1	1.100982E-1	1.284354E-1	1.059850E-1	1.042668E-1	1.192515E-1	1.269999E-1	1.408696E-1	1.087261E-1	1.314977E-1	1.147806E-1	1.072021E-1	1.315081E-1	1.447749E-1	1.140620E-1	1.034726E-1	9.248832E-2	9.245654E-2	1.315335E-1	1.422787E-1	1.255834E-1	1.014454E-1	1.288219E-1	1.351119E-1	1.280741E-1	9.881334E-2	1.090386E-1	1.187652E-1	1.202056E-1	1.336387E-1	1.230377E-1	1.269410E-1	1.365347E-1	1.133311E-1
5.340590E+2	1.881889E-1	1.488424E-1	1.568982E-1	1.547978E-1	1.684518E-1	1.637684E-1	1.312266E-1	1.678940E-1	1.624023E-1	1.449922E-1	1.654742E-1	1.670936E-1	1.551231E-1	1.669849E-1	1.882528E-1	1.813780E-1	1.719492E-1	1.824208E-1	1.767494E-1	1.641588E-1	1.815279E-1	1.595044E-1	2.797374E-1	1.961470E-1	1.900248E-1	2.082307E-1	2.395472E-1	1.763511E-1	2.271802E-1	1.859297E-1	2.022697E-1	2.187698E-1	2.270769E-1	1.983637E-1	1.648410E-1	2.190856E-1	2.001697E-1	1.926120E-1	1.866292E-1	1.787020E-1	1.750364E-1	2.019036E-1	2.039436E-1	1.503013E-1	2.050939E-1	2.320245E-1	1.999838E-1	2.176618E-1	2.098325E-1	2.150056E-1	1.799046E-1	2.095333E-1	2.246852E-1	2.040563E-1	1.683211E-1	1.931164E-1	1.744672E-1	1.756149E-1	2.229718E-1	1.863696E-1	1.572163E-1	1.756406E-1	1.815848E-1	2.036129E-1	1.936425E-1	1.652284E-1	1.745521E-1	2.011881E-1	1.999386E-1	1.793765E-1	1.749940E-1	2.141675E-1	1.691844E-1	1.757115E-1	1.951197E-1	1.479371E-1	1.933644E-1	1.619260E-1	1.867580E-1	1.945790E-1	1.596114E-1	1.725624E-1	1.591273E-1	1.575291E-1	2.007405E-1	1.644605E-1	1.731385E-1	1.701859E-1	1.722770E-1	1.689562E-1	2.000375E-1	1.873686E-1	1.779824E-1	1.832559E-1	1.797230E-1	1.810568E-1	1.795729E-1	1.685732E-1	1.521951E-1	1.516511E-1	1.918074E-1	1.782283E-1	1.656144E-1	2.083860E-1	1.480792E-1	2.060801E-1	1.789708E-1	1.605712E-1	1.761298E-1	1.703692E-1	1.741388E-1	1.914228E-1	1.919792E-1	1.525910E-1	1.473793E-1	1.914508E-1	1.896901E-1	1.709529E-1	1.818734E-1	1.762962E-1	1.870161E-1	2.114413E-1	1.950476E-1	1.766526E-1	1.993743E-1	2.065383E-1	1.796663E-1	2.193010E-1	2.139720E-1	1.798038E-1	1.536112E-1	1.876009E-1	1.977295E-1	2.085128E-1	2.003709E-1	1.776079E-1	1.763872E-1	1.958831E-1	1.972953E-1	1.813900E-1	1.707316E-1	2.078182E-1	2.255364E-1	1.636026E-1	2.097176E-1	1.827705E-1	1.693809E-1	1.660766E-1	1.975819E-1	1.993813E-1	1.741673E-1	1.889559E-1	1.642211E-1	2.050129E-1	1.879264E-1	2.030823E-1	1.782655E-1	2.202554E-1	2.016125E-1	2.105860E-1	1.775280E-1	1.699246E-1	1.705780E-1	1.589653E-1	1.768446E-1	1.690782E-1	1.774371E-1	1.740618E-1	1.860614E-1
5.342090E+2	3.039651E-1	2.844869E-1	3.111911E-1	2.463283E-1	2.943616E-1	3.269636E-1	2.418316E-1	2.866761E-1	3.021230E-1	2.537785E-1	3.330472E-1	2.866494E-1	3.046863E-1	2.921413E-1	3.070545E-1	3.000098E-1	3.224054E-1	2.833237E-1	2.871973E-1	2.898748E-1	3.218632E-1	3.000998E-1	4.539237E-1	3.690661E-1	3.588211E-1	3.011040E-1	4.220359E-1	3.051590E-1	3.969349E-1	3.153054E-1	3.704943E-1	3.672320E-1	3.442230E-1	3.346257E-1	3.139830E-1	3.421394E-1	3.765571E-1	3.234765E-1	3.170798E-1	3.150700E-1	3.244248E-1	3.153027E-1	3.676054E-1	2.618124E-1	3.415013E-1	3.366545E-1	3.026914E-1	3.727760E-1	3.577405E-1	3.312805E-1	2.688851E-1	3.528352E-1	3.609945E-1	3.238181E-1	3.263640E-1	3.409417E-1	2.972535E-1	2.810348E-1	3.346948E-1	2.842132E-1	3.090326E-1	3.176399E-1	3.103765E-1	3.457850E-1	3.365860E-1	3.012989E-1	2.805727E-1	3.456856E-1	3.428252E-1	3.156039E-1	2.966163E-1	3.184631E-1	3.087002E-1	2.703738E-1	3.474657E-1	3.082421E-1	3.113626E-1	3.281782E-1	3.270119E-1	3.295501E-1	3.414297E-1	2.928233E-1	2.759278E-1	2.902741E-1	2.946061E-1	2.787708E-1	2.907310E-1	2.864105E-1	2.709727E-1	2.886648E-1	3.169437E-1	2.811031E-1	3.244490E-1	3.040170E-1	2.766440E-1	2.807772E-1	3.346546E-1	3.087066E-1	2.808129E-1	2.797333E-1	3.351767E-1	3.055338E-1	2.975913E-1	3.107388E-1	3.084990E-1	3.052641E-1	3.121958E-1	2.749127E-1	3.136574E-1	3.229499E-1	2.993242E-1	3.618490E-1	3.326861E-1	2.797783E-1	2.689455E-1	3.204070E-1	3.257150E-1	2.942571E-1	3.049998E-1	2.913436E-1	3.293535E-1	3.437435E-1	3.237930E-1	3.008148E-1	3.633691E-1	3.155448E-1	3.276614E-1	3.458211E-1	3.226433E-1	3.361504E-1	2.576144E-1	3.341385E-1	3.341708E-1	3.066602E-1	2.875312E-1	3.142083E-1	3.219753E-1	3.461072E-1	3.450030E-1	3.096951E-1	3.056228E-1	3.287273E-1	3.108404E-1	2.903404E-1	3.598724E-1	3.086991E-1	3.004443E-1	2.998391E-1	3.622144E-1	3.006184E-1	2.845502E-1	3.030860E-1	2.669302E-1	3.332263E-1	3.262523E-1	3.398455E-1	3.119198E-1	3.322289E-1	3.265519E-1	3.756092E-1	3.145033E-1	2.803981E-1	2.853897E-1	3.245748E-1	3.202092E-1	3.299134E-1	3.029759E-1	2.954261E-1	2.901217E-1
5.343600E+2	5.763361E-1	5.667747E-1	5.398258E-1	4.941662E-1	5.574980E-1	5.062103E-1	4.043029E-1	4.764771E-1	5.383781E-1	4.689606E-1	5.814017E-1	5.377170E-1	5.265293E-1	4.813305E-1	5.534176E-1	5.471603E-1	5.740886E-1	4.706317E-1	5.653201E-1	5.283955E-1	6.046278E-1	5.394913E-1	7.391308E-1	6.277998E-1	6.264429E-1	5.563676E-1	6.747666E-1	5.991374E-1	6.407025E-1	5.603442E-1	5.813588E-1	6.507955E-1	6.437521E-1	5.257535E-1	5.657723E-1	5.910600E-1	5.952240E-1	5.587813E-1	5.760806E-1	5.707597E-1	5.300048E-1	5.478675E-1	5.667602E-1	4.923952E-1	6.190428E-1	6.505475E-1	5.841435E-1	6.234034E-1	6.411086E-1	5.422730E-1	5.324264E-1	6.281988E-1	6.140399E-1	5.397926E-1	5.348330E-1	5.485261E-1	5.218618E-1	4.805581E-1	6.026982E-1	5.233877E-1	5.675466E-1	5.028317E-1	5.470746E-1	6.208412E-1	5.710693E-1	5.452871E-1	4.989129E-1	5.909779E-1	5.950190E-1	5.812787E-1	5.072742E-1	5.782870E-1	5.399526E-1	4.964412E-1	5.664214E-1	5.828584E-1	5.348735E-1	5.227839E-1	5.324868E-1	6.087485E-1	5.794586E-1	5.149796E-1	4.854186E-1	4.788772E-1	5.734014E-1	5.168615E-1	5.034610E-1	4.847502E-1	5.140108E-1	4.764041E-1	5.272439E-1	5.455183E-1	5.559996E-1	5.260044E-1	4.864273E-1	5.624216E-1	5.502034E-1	4.877660E-1	4.726015E-1	5.003979E-1	5.617001E-1	4.825494E-1	5.010796E-1	5.445918E-1	5.332159E-1	5.500849E-1	5.702826E-1	5.021571E-1	5.711445E-1	5.491898E-1	5.629638E-1	6.253072E-1	5.604005E-1	4.564270E-1	4.827914E-1	5.576593E-1	5.540674E-1	5.248370E-1	4.954510E-1	5.364439E-1	5.650595E-1	5.828783E-1	5.630721E-1	5.606889E-1	5.705207E-1	5.960294E-1	5.346194E-1	6.379665E-1	5.971808E-1	5.450158E-1	4.973998E-1	5.715579E-1	6.140858E-1	5.499249E-1	5.347933E-1	5.376795E-1	5.264179E-1	6.059350E-1	5.679072E-1	5.564901E-1	5.636752E-1	5.578184E-1	5.998547E-1	5.405505E-1	6.036118E-1	5.244932E-1	5.327005E-1	5.636070E-1	6.332374E-1	5.572130E-1	5.313608E-1	5.496895E-1	4.822233E-1	6.098966E-1	5.524158E-1	5.799412E-1	5.099032E-1	6.065309E-1	5.932251E-1	6.437719E-1	5.029218E-1	5.201758E-1	5.309109E-1	5.395143E-1	5.702795E-1	4.827676E-1	5.182848E-1	5.461389E-1	5.609017E-1
5.345110E+2	1.028307E+0	8.336653E-1	8.666465E-1	8.011465E-1	9.323971E-1	9.041659E-1	7.036245E-1	8.315674E-1	8.622756E-1	7.989067E-1	9.045299E-1	8.598533E-1	8.829231E-1	8.899793E-1	8.950406E-1	9.207104E-1	9.401740E-1	8.713443E-1	9.184108E-1	8.973886E-1	9.669859E-1	8.954127E-1	1.120043E+0	9.316988E-1	1.012366E+0	8.728052E-1	1.083128E+0	9.683044E-1	1.052187E+0	9.323737E-1	1.018275E+0	1.014528E+0	1.012727E+0	9.013782E-1	8.918314E-1	9.756904E-1	1.023971E+0	8.790222E-1	9.642658E-1	9.208579E-1	8.952521E-1	9.220208E-1	9.874173E-1	8.250378E-1	1.028265E+0	1.049238E+0	9.745455E-1	9.947603E-1	1.072385E+0	9.518477E-1	8.475429E-1	9.822379E-1	1.038346E+0	8.957138E-1	9.493105E-1	8.882102E-1	8.345168E-1	8.170680E-1	1.015010E+0	9.064498E-1	8.906893E-1	8.300228E-1	9.218463E-1	1.000204E+0	9.365255E-1	9.030587E-1	7.949312E-1	9.419996E-1	9.715248E-1	9.036632E-1	8.517749E-1	9.350872E-1	9.215508E-1	8.184162E-1	8.928769E-1	9.345829E-1	9.088480E-1	8.804201E-1	8.580144E-1	1.001322E+0	8.965996E-1	8.467335E-1	7.849212E-1	8.153397E-1	9.208444E-1	8.388252E-1	8.391018E-1	8.555313E-1	8.384736E-1	8.152508E-1	9.478447E-1	8.554010E-1	8.392084E-1	8.906553E-1	8.619967E-1	8.716906E-1	9.030493E-1	8.514459E-1	7.651219E-1	8.303502E-1	9.545314E-1	8.644670E-1	8.179406E-1	8.923215E-1	7.936540E-1	8.865573E-1	8.576425E-1	8.674751E-1	8.855809E-1	8.824122E-1	8.681395E-1	1.000558E+0	9.369780E-1	8.268001E-1	7.988631E-1	8.903820E-1	9.057594E-1	8.454286E-1	8.157006E-1	8.937326E-1	8.418992E-1	9.932282E-1	8.927865E-1	9.050220E-1	9.429954E-1	9.262361E-1	9.261287E-1	1.030562E+0	9.510778E-1	8.667645E-1	7.787863E-1	9.400158E-1	9.896515E-1	9.824741E-1	7.820559E-1	8.801260E-1	8.739712E-1	9.722981E-1	9.667177E-1	9.322914E-1	8.484457E-1	8.874546E-1	9.480717E-1	8.423707E-1	1.029632E+0	8.212835E-1	8.600542E-1	9.393454E-1	1.047926E+0	8.348192E-1	8.234406E-1	8.941192E-1	7.738900E-1	9.877894E-1	9.099893E-1	9.362855E-1	8.234299E-1	9.517276E-1	9.411770E-1	1.026975E+0	8.859571E-1	8.239783E-1	8.947770E-1	8.862380E-1	8.917046E-1	8.424974E-1	8.472093E-1	9.357821E-1	8.618925E-1
5.346560E+2	1.311812E+0	1.271394E+0	1.269913E+0	1.203178E+0	1.300223E+0	1.215172E+0	1.045438E+0	1.161519E+0	1.182997E+0	1.133634E+0	1.333141E+0	1.191954E+0	1.247657E+0	1.188024E+0	1.293603E+0	1.304146E+0	1.342315E+0	1.239000E+0	1.293247E+0	1.251433E+0	1.337023E+0	1.314666E+0	1.465228E+0	1.270441E+0	1.338418E+0	1.159211E+0	1.558977E+0	1.248108E+0	1.433117E+0	1.262670E+0	1.381594E+0	1.512618E+0	1.365566E+0	1.257708E+0	1.235401E+0	1.380713E+0	1.402512E+0	1.225057E+0	1.289759E+0	1.291278E+0	1.221438E+0	1.317955E+0	1.431079E+0	1.071371E+0	1.358482E+0	1.486908E+0	1.309907E+0	1.391333E+0	1.467783E+0	1.320924E+0	1.185895E+0	1.377020E+0	1.429799E+0	1.277875E+0	1.254327E+0	1.247395E+0	1.175321E+0	1.130350E+0	1.360159E+0	1.262012E+0	1.277849E+0	1.265491E+0	1.274572E+0	1.463157E+0	1.261843E+0	1.235021E+0	1.082551E+0	1.264828E+0	1.373035E+0	1.383232E+0	1.206751E+0	1.231506E+0	1.278939E+0	1.138524E+0	1.336724E+0	1.320804E+0	1.309042E+0	1.264475E+0	1.229717E+0	1.396980E+0	1.301873E+0	1.195667E+0	1.102103E+0	1.134716E+0	1.311717E+0	1.133056E+0	1.186560E+0	1.202940E+0	1.153683E+0	1.106999E+0	1.309665E+0	1.189767E+0	1.197171E+0	1.271882E+0	1.078794E+0	1.166809E+0	1.312805E+0	1.154511E+0	1.054798E+0	1.129674E+0	1.336610E+0	1.199100E+0	1.115034E+0	1.160066E+0	1.182688E+0	1.295219E+0	1.211913E+0	1.191802E+0	1.219404E+0	1.202771E+0	1.260424E+0	1.384408E+0	1.293164E+0	1.090597E+0	1.077913E+0	1.312163E+0	1.241945E+0	1.153690E+0	1.146866E+0	1.235300E+0	1.223859E+0	1.351930E+0	1.262694E+0	1.271732E+0	1.292231E+0	1.378837E+0	1.230962E+0	1.390187E+0	1.312122E+0	1.229562E+0	1.076351E+0	1.311996E+0	1.351855E+0	1.230646E+0	1.157896E+0	1.245863E+0	1.228338E+0	1.376218E+0	1.319201E+0	1.301783E+0	1.279183E+0	1.240000E+0	1.334484E+0	1.135044E+0	1.433301E+0	1.128716E+0	1.203256E+0	1.298551E+0	1.371755E+0	1.256960E+0	1.191176E+0	1.302407E+0	1.045147E+0	1.371679E+0	1.305602E+0	1.287311E+0	1.155069E+0	1.377755E+0	1.295172E+0	1.457780E+0	1.182842E+0	1.188664E+0	1.216839E+0	1.232961E+0	1.219677E+0	1.175217E+0	1.211201E+0	1.178510E+0	1.157289E+0
5.348070E+2	1.826124E+0	1.624806E+0	1.631101E+0	1.579159E+0	1.663806E+0	1.581024E+0	1.309766E+0	1.471358E+0	1.626929E+0	1.452821E+0	1.743061E+0	1.526711E+0	1.657985E+0	1.523327E+0	1.629750E+0	1.662162E+0	1.734748E+0	1.525475E+0	1.665794E+0	1.601398E+0	1.789445E+0	1.640190E+0	1.814875E+0	1.634345E+0	1.758242E+0	1.421149E+0	1.875751E+0	1.567353E+0	1.762438E+0	1.590581E+0	1.744911E+0	1.835525E+0	1.762599E+0	1.532042E+0	1.538515E+0	1.714013E+0	1.767176E+0	1.578643E+0	1.600690E+0	1.562047E+0	1.584629E+0	1.688265E+0	1.746573E+0	1.410945E+0	1.746766E+0	1.850725E+0	1.659453E+0	1.820765E+0	1.754813E+0	1.617487E+0	1.542952E+0	1.742298E+0	1.757640E+0	1.608225E+0	1.603617E+0	1.538015E+0	1.489775E+0	1.423380E+0	1.670721E+0	1.512059E+0	1.672939E+0	1.542981E+0	1.583208E+0	1.773221E+0	1.674481E+0	1.588689E+0	1.384869E+0	1.650387E+0	1.767402E+0	1.649525E+0	1.480257E+0	1.679793E+0	1.602569E+0	1.448664E+0	1.604484E+0	1.564307E+0	1.658045E+0	1.554450E+0	1.554666E+0	1.751763E+0	1.652326E+0	1.508464E+0	1.410715E+0	1.409407E+0	1.661266E+0	1.494928E+0	1.539338E+0	1.511189E+0	1.497885E+0	1.377161E+0	1.641445E+0	1.603180E+0	1.507120E+0	1.538268E+0	1.449261E+0	1.479451E+0	1.651424E+0	1.419210E+0	1.409348E+0	1.458930E+0	1.657759E+0	1.535551E+0	1.469100E+0	1.599302E+0	1.443124E+0	1.591518E+0	1.556627E+0	1.493835E+0	1.538083E+0	1.513781E+0	1.570796E+0	1.770606E+0	1.671101E+0	1.466856E+0	1.375749E+0	1.632776E+0	1.629579E+0	1.455170E+0	1.493805E+0	1.551144E+0	1.583621E+0	1.696483E+0	1.611248E+0	1.609569E+0	1.606945E+0	1.719244E+0	1.572356E+0	1.784313E+0	1.677460E+0	1.592360E+0	1.397030E+0	1.618458E+0	1.667640E+0	1.629545E+0	1.407013E+0	1.545504E+0	1.517038E+0	1.668999E+0	1.662288E+0	1.538762E+0	1.522901E+0	1.639637E+0	1.641324E+0	1.438170E+0	1.774122E+0	1.475169E+0	1.495864E+0	1.647985E+0	1.748391E+0	1.519280E+0	1.495041E+0	1.618305E+0	1.421745E+0	1.787063E+0	1.626517E+0	1.735589E+0	1.426124E+0	1.778610E+0	1.627002E+0	1.833842E+0	1.503897E+0	1.484309E+0	1.482970E+0	1.586027E+0	1.606568E+0	1.479083E+0	1.535915E+0	1.509866E+0	1.404571E+0
5.349630E+2	2.161579E+0	1.902694E+0	1.903216E+0	1.734759E+0	2.137025E+0	1.889356E+0	1.574093E+0	1.798167E+0	2.115949E+0	1.702073E+0	2.118267E+0	1.844200E+0	2.049405E+0	1.849315E+0	1.930861E+0	2.003934E+0	2.052298E+0	1.848479E+0	1.935904E+0	1.907191E+0	2.153899E+0	1.931513E+0	1.960349E+0	1.842751E+0	2.128297E+0	1.641931E+0	2.101626E+0	1.774430E+0	2.077505E+0	1.799848E+0	1.970960E+0	2.016651E+0	2.159636E+0	1.787081E+0	1.751664E+0	1.872927E+0	2.127877E+0	1.853588E+0	1.860954E+0	1.834784E+0	2.021145E+0	1.857402E+0	1.993711E+0	1.616329E+0	2.086437E+0	2.195390E+0	1.931257E+0	2.076738E+0	2.150211E+0	1.983948E+0	1.710147E+0	2.067539E+0	2.190336E+0	1.844388E+0	1.828076E+0	1.784596E+0	1.717377E+0	1.656258E+0	2.058428E+0	1.799836E+0	1.863168E+0	1.861886E+0	1.863999E+0	2.069705E+0	1.951214E+0	1.765814E+0	1.578016E+0	1.894978E+0	2.028886E+0	1.879445E+0	1.714771E+0	1.929250E+0	1.790496E+0	1.629268E+0	1.934238E+0	1.872745E+0	1.819123E+0	1.774832E+0	1.784959E+0	2.089580E+0	1.923665E+0	1.673154E+0	1.620207E+0	1.667012E+0	1.886120E+0	1.668083E+0	1.668751E+0	1.744902E+0	1.709465E+0	1.669562E+0	1.851093E+0	1.836814E+0	1.705245E+0	1.794587E+0	1.662872E+0	1.777265E+0	1.928151E+0	1.682789E+0	1.602276E+0	1.641312E+0	1.968869E+0	1.770157E+0	1.710382E+0	1.745039E+0	1.713955E+0	1.814996E+0	1.784842E+0	1.691599E+0	1.806476E+0	1.803157E+0	1.783664E+0	1.980902E+0	1.872987E+0	1.648808E+0	1.590701E+0	1.915624E+0	1.849475E+0	1.651843E+0	1.687291E+0	1.806246E+0	1.872868E+0	1.920055E+0	1.893863E+0	1.977727E+0	1.887130E+0	1.933431E+0	1.788157E+0	2.097165E+0	1.925546E+0	1.860385E+0	1.652992E+0	1.896739E+0	2.043904E+0	1.894541E+0	1.671584E+0	1.795411E+0	1.824938E+0	2.016970E+0	1.926814E+0	1.877405E+0	1.891083E+0	1.860453E+0	1.909967E+0	1.683811E+0	1.979446E+0	1.698055E+0	1.717147E+0	1.867419E+0	1.982139E+0	1.764419E+0	1.765417E+0	1.836374E+0	1.604119E+0	2.010498E+0	1.929457E+0	1.948332E+0	1.712795E+0	2.018458E+0	1.983017E+0	2.113904E+0	1.636533E+0	1.663826E+0	1.775001E+0	1.796738E+0	1.823905E+0	1.787249E+0	1.756838E+0	1.770159E+0	1.721227E+0
5.351090E+2	2.318175E+0	2.119724E+0	2.034367E+0	1.862907E+0	2.348527E+0	2.073954E+0	1.642832E+0	1.921351E+0	2.256939E+0	1.763642E+0	2.229088E+0	1.993641E+0	2.181175E+0	1.998917E+0	2.032693E+0	2.095733E+0	2.208996E+0	1.928506E+0	2.147646E+0	2.048539E+0	2.444348E+0	2.056273E+0	2.084773E+0	1.865336E+0	2.285552E+0	1.717567E+0	2.194587E+0	1.895845E+0	2.328743E+0	1.993611E+0	2.097129E+0	2.212619E+0	2.278884E+0	1.928771E+0	1.918917E+0	2.067001E+0	2.378258E+0	1.896371E+0	2.016101E+0	1.940341E+0	2.264415E+0	1.956066E+0	2.127794E+0	1.696337E+0	2.288345E+0	2.306173E+0	1.994246E+0	2.279989E+0	2.294457E+0	2.010080E+0	1.800826E+0	2.094933E+0	2.311965E+0	1.970878E+0	2.067908E+0	1.984003E+0	1.931208E+0	1.775972E+0	2.183448E+0	1.943083E+0	2.035713E+0	1.937620E+0	1.998012E+0	2.184731E+0	2.092747E+0	1.982825E+0	1.730223E+0	2.004228E+0	2.293222E+0	1.997798E+0	1.806716E+0	2.033542E+0	2.059975E+0	1.770017E+0	1.978425E+0	2.001932E+0	2.020780E+0	1.971371E+0	1.921175E+0	2.198327E+0	2.109647E+0	1.750764E+0	1.725756E+0	1.741271E+0	2.296608E+0	1.761428E+0	1.773932E+0	1.837756E+0	2.066002E+0	1.756565E+0	2.013062E+0	1.956430E+0	1.951990E+0	1.961524E+0	1.842682E+0	1.907304E+0	2.072564E+0	1.800685E+0	1.737151E+0	1.804196E+0	2.215464E+0	1.856240E+0	1.811544E+0	1.933475E+0	1.934774E+0	2.008968E+0	1.882222E+0	1.886480E+0	1.929463E+0	1.852267E+0	1.948082E+0	2.170092E+0	2.045641E+0	1.769514E+0	1.706743E+0	1.903509E+0	2.118000E+0	1.838648E+0	1.835284E+0	1.951309E+0	2.011940E+0	2.055893E+0	1.894491E+0	2.021038E+0	2.081003E+0	2.113832E+0	1.934973E+0	2.320297E+0	2.105707E+0	1.895997E+0	1.637969E+0	1.985507E+0	2.134633E+0	2.029846E+0	1.738965E+0	2.016994E+0	1.885654E+0	2.046860E+0	2.131593E+0	1.994490E+0	1.977751E+0	1.892272E+0	2.036650E+0	1.777883E+0	2.170809E+0	1.857092E+0	1.737266E+0	2.014708E+0	2.222875E+0	1.935692E+0	1.860296E+0	1.979039E+0	1.720655E+0	2.092221E+0	2.074695E+0	2.158794E+0	1.723411E+0	2.163559E+0	2.061604E+0	2.238468E+0	1.841687E+0	1.799407E+0	1.922197E+0	1.913719E+0	1.917515E+0	1.889769E+0	1.906922E+0	1.810083E+0	1.845429E+0
5.352600E+2	2.235792E+0	2.001679E+0	2.026653E+0	1.763631E+0	2.216959E+0	1.982322E+0	1.616584E+0	1.863529E+0	2.165485E+0	1.774401E+0	2.040820E+0	2.031502E+0	2.079429E+0	1.869688E+0	2.009148E+0	1.987691E+0	2.160462E+0	1.933725E+0	1.935907E+0	1.958841E+0	2.232097E+0	1.948612E+0	1.889528E+0	1.789843E+0	2.193943E+0	1.674742E+0	2.160154E+0	1.803399E+0	2.078863E+0	1.903587E+0	2.046312E+0	2.146554E+0	2.175067E+0	1.795521E+0	1.816270E+0	1.983325E+0	2.326064E+0	1.823387E+0	1.924280E+0	1.815117E+0	2.103376E+0	1.916346E+0	2.104134E+0	1.661684E+0	2.187729E+0	2.282923E+0	1.954526E+0	2.143981E+0	2.240272E+0	1.948020E+0	1.719214E+0	2.056296E+0	2.255342E+0	1.933870E+0	1.929544E+0	1.876440E+0	1.888078E+0	1.702120E+0	2.047124E+0	1.834369E+0	1.916211E+0	1.902120E+0	1.946378E+0	2.141865E+0	2.019518E+0	1.815668E+0	1.626300E+0	1.900614E+0	2.160343E+0	1.905952E+0	1.809045E+0	1.883506E+0	1.989261E+0	1.679715E+0	1.909836E+0	1.912648E+0	1.962091E+0	1.876001E+0	1.866919E+0	2.067984E+0	2.066618E+0	1.748986E+0	1.667354E+0	1.634154E+0	2.135491E+0	1.760750E+0	1.681157E+0	1.752483E+0	1.980879E+0	1.713389E+0	1.953628E+0	1.833316E+0	1.827400E+0	1.859114E+0	1.748314E+0	1.723360E+0	2.077538E+0	1.728392E+0	1.628455E+0	1.736676E+0	2.107221E+0	1.725296E+0	1.742941E+0	1.850100E+0	1.900352E+0	1.967536E+0	1.836817E+0	1.972775E+0	1.903414E+0	1.792637E+0	1.902505E+0	2.118497E+0	2.064673E+0	1.698856E+0	1.623303E+0	1.945546E+0	2.126463E+0	1.760349E+0	1.775236E+0	1.790528E+0	2.068091E+0	1.997877E+0	1.942847E+0	1.939464E+0	2.012614E+0	1.988889E+0	1.847709E+0	2.112502E+0	2.052084E+0	1.812694E+0	1.669749E+0	1.915055E+0	2.185972E+0	1.949927E+0	1.695690E+0	1.936421E+0	1.995311E+0	1.993980E+0	1.995300E+0	1.935598E+0	1.964718E+0	1.869363E+0	1.945615E+0	1.719738E+0	2.054175E+0	1.799746E+0	1.743362E+0	1.910255E+0	2.113383E+0	1.814078E+0	1.812544E+0	1.959336E+0	1.672589E+0	2.000750E+0	1.881039E+0	2.053187E+0	1.702178E+0	2.003881E+0	1.888973E+0	2.173409E+0	1.789621E+0	1.698352E+0	1.810919E+0	1.848886E+0	1.847472E+0	1.784792E+0	1.780684E+0	1.745410E+0	1.866689E+0
5.354060E+2	1.881785E+0	1.800043E+0	1.727886E+0	1.608027E+0	1.859742E+0	1.800401E+0	1.429121E+0	1.669958E+0	1.863184E+0	1.540092E+0	1.817835E+0	1.720658E+0	1.807545E+0	1.665947E+0	1.740890E+0	1.775848E+0	1.955233E+0	1.630436E+0	1.782540E+0	1.733229E+0	1.959105E+0	1.740252E+0	1.678334E+0	1.547240E+0	1.836870E+0	1.457297E+0	1.879196E+0	1.617892E+0	1.872441E+0	1.674645E+0	1.788718E+0	1.932769E+0	1.933059E+0	1.634537E+0	1.629692E+0	1.760422E+0	2.084277E+0	1.570467E+0	1.677946E+0	1.659079E+0	1.909445E+0	1.683141E+0	1.761033E+0	1.487175E+0	1.864267E+0	2.007328E+0	1.698040E+0	1.960591E+0	1.911506E+0	1.737681E+0	1.552020E+0	1.797090E+0	1.991111E+0	1.695025E+0	1.639903E+0	1.626708E+0	1.670659E+0	1.483536E+0	1.827664E+0	1.625250E+0	1.652207E+0	1.627592E+0	1.692856E+0	1.819655E+0	1.823759E+0	1.613910E+0	1.426331E+0	1.706070E+0	1.953151E+0	1.702537E+0	1.566962E+0	1.682845E+0	1.788587E+0	1.534609E+0	1.763426E+0	1.699587E+0	1.711111E+0	1.640153E+0	1.610076E+0	1.818093E+0	1.903540E+0	1.608582E+0	1.462151E+0	1.452123E+0	1.970880E+0	1.589623E+0	1.558839E+0	1.636888E+0	1.723650E+0	1.412485E+0	1.698266E+0	1.662637E+0	1.603145E+0	1.675012E+0	1.453728E+0	1.598711E+0	1.775917E+0	1.559896E+0	1.400815E+0	1.569612E+0	1.966718E+0	1.596781E+0	1.523175E+0	1.657597E+0	1.676283E+0	1.656801E+0	1.610396E+0	1.797308E+0	1.679244E+0	1.637130E+0	1.642327E+0	1.897252E+0	1.799571E+0	1.487467E+0	1.471346E+0	1.754606E+0	1.917135E+0	1.558745E+0	1.498659E+0	1.589728E+0	1.782763E+0	1.789873E+0	1.664004E+0	1.715686E+0	1.755668E+0	1.720514E+0	1.613629E+0	1.860992E+0	1.899809E+0	1.597793E+0	1.460586E+0	1.731177E+0	1.990452E+0	1.755733E+0	1.504062E+0	1.649998E+0	1.731394E+0	1.823058E+0	1.758967E+0	1.715445E+0	1.636940E+0	1.689909E+0	1.690976E+0	1.475408E+0	1.831389E+0	1.568579E+0	1.587910E+0	1.753192E+0	1.866430E+0	1.623066E+0	1.532248E+0	1.663818E+0	1.438206E+0	1.845543E+0	1.708820E+0	1.821449E+0	1.481707E+0	1.783248E+0	1.713653E+0	1.975860E+0	1.672479E+0	1.592897E+0	1.630162E+0	1.604349E+0	1.867109E+0	1.623958E+0	1.576597E+0	1.583322E+0	1.712276E+0
5.355630E+2	1.652459E+0	1.585944E+0	1.525197E+0	1.428487E+0	1.682902E+0	1.496081E+0	1.254151E+0	1.395942E+0	1.625024E+0	1.365554E+0	1.609540E+0	1.486857E+0	1.599603E+0	1.461622E+0	1.533395E+0	1.535762E+0	1.670959E+0	1.435008E+0	1.531886E+0	1.444425E+0	1.704967E+0	1.506558E+0	1.551363E+0	1.404646E+0	1.663748E+0	1.305472E+0	1.676733E+0	1.438547E+0	1.622562E+0	1.452858E+0	1.551566E+0	1.597243E+0	1.674215E+0	1.454866E+0	1.426810E+0	1.517829E+0	1.711023E+0	1.411290E+0	1.451241E+0	1.354217E+0	1.701128E+0	1.438405E+0	1.550045E+0	1.295655E+0	1.688691E+0	1.681809E+0	1.475033E+0	1.643490E+0	1.658893E+0	1.509054E+0	1.325320E+0	1.570899E+0	1.732475E+0	1.430603E+0	1.448651E+0	1.461895E+0	1.432276E+0	1.301880E+0	1.634144E+0	1.371370E+0	1.487586E+0	1.403348E+0	1.441655E+0	1.581749E+0	1.620966E+0	1.407459E+0	1.235809E+0	1.476286E+0	1.704530E+0	1.493571E+0	1.335936E+0	1.466935E+0	1.514652E+0	1.292971E+0	1.512815E+0	1.420910E+0	1.518197E+0	1.402376E+0	1.431730E+0	1.570515E+0	1.555864E+0	1.318887E+0	1.261231E+0	1.252346E+0	1.685781E+0	1.337327E+0	1.375655E+0	1.396861E+0	1.523792E+0	1.270533E+0	1.454656E+0	1.426202E+0	1.403802E+0	1.374884E+0	1.331298E+0	1.342668E+0	1.557520E+0	1.338021E+0	1.296667E+0	1.545247E+0	1.634816E+0	1.373085E+0	1.327243E+0	1.408154E+0	1.475598E+0	1.477897E+0	1.433557E+0	1.538421E+0	1.427816E+0	1.370553E+0	1.430609E+0	1.565000E+0	1.652749E+0	1.260768E+0	1.303365E+0	1.495268E+0	1.697241E+0	1.288091E+0	1.368252E+0	1.381789E+0	1.619532E+0	1.554276E+0	1.474341E+0	1.476746E+0	1.570425E+0	1.559877E+0	1.455607E+0	1.740608E+0	1.658870E+0	1.425147E+0	1.279735E+0	1.512781E+0	1.669747E+0	1.563645E+0	1.388469E+0	1.456745E+0	1.512081E+0	1.554802E+0	1.512565E+0	1.558391E+0	1.434929E+0	1.525091E+0	1.511458E+0	1.331685E+0	1.548539E+0	1.326184E+0	1.390404E+0	1.498443E+0	1.710340E+0	1.391304E+0	1.382177E+0	1.453222E+0	1.302575E+0	1.604111E+0	1.527616E+0	1.553240E+0	1.327446E+0	1.548699E+0	1.528261E+0	1.651366E+0	1.477865E+0	1.329898E+0	1.394651E+0	1.436626E+0	1.561393E+0	1.412171E+0	1.370403E+0	1.404471E+0	1.547794E+0
5.357140E+2	1.455790E+0	1.500891E+0	1.335838E+0	1.125025E+0	1.381569E+0	1.445920E+0	1.185412E+0	1.184774E+0	1.392578E+0	1.233454E+0	1.321794E+0	1.308853E+0	1.326609E+0	1.205486E+0	1.248161E+0	1.237063E+0	1.389463E+0	1.314390E+0	1.237736E+0	1.226968E+0	1.437560E+0	1.400163E+0	1.327408E+0	1.184625E+0	1.332647E+0	1.173117E+0	1.382686E+0	1.211130E+0	1.374044E+0	1.247166E+0	1.324931E+0	1.323329E+0	1.409058E+0	1.194401E+0	1.176228E+0	1.266800E+0	1.491696E+0	1.221283E+0	1.287857E+0	1.169993E+0	1.340676E+0	1.278234E+0	1.339718E+0	1.065700E+0	1.319312E+0	1.407579E+0	1.202660E+0	1.457046E+0	1.378453E+0	1.268662E+0	1.153023E+0	1.335576E+0	1.429101E+0	1.193773E+0	1.263552E+0	1.252427E+0	1.225034E+0	1.091041E+0	1.321584E+0	1.209573E+0	1.266266E+0	1.177331E+0	1.278055E+0	1.320268E+0	1.346345E+0	1.152323E+0	1.022718E+0	1.206324E+0	1.377320E+0	1.256253E+0	1.128192E+0	1.250412E+0	1.312702E+0	1.129805E+0	1.264840E+0	1.217992E+0	1.279075E+0	1.211636E+0	1.180080E+0	1.361501E+0	1.292158E+0	1.089624E+0	1.082279E+0	1.078859E+0	1.446914E+0	1.122234E+0	1.164107E+0	1.166307E+0	1.290006E+0	1.073638E+0	1.248273E+0	1.224042E+0	1.265237E+0	1.191375E+0	1.157862E+0	1.138512E+0	1.276525E+0	1.142278E+0	1.008129E+0	1.268198E+0	1.459910E+0	1.188793E+0	1.097590E+0	1.198026E+0	1.219707E+0	1.265716E+0	1.236407E+0	1.334909E+0	1.212137E+0	1.209789E+0	1.197545E+0	1.321085E+0	1.347543E+0	1.101783E+0	1.058021E+0	1.243768E+0	1.396998E+0	1.150608E+0	1.115934E+0	1.183850E+0	1.355098E+0	1.311604E+0	1.213708E+0	1.284726E+0	1.290240E+0	1.312541E+0	1.249242E+0	1.384051E+0	1.412217E+0	1.181874E+0	1.090798E+0	1.250704E+0	1.443284E+0	1.281122E+0	1.136260E+0	1.207464E+0	1.296487E+0	1.327163E+0	1.311145E+0	1.287761E+0	1.195122E+0	1.223455E+0	1.279739E+0	1.116099E+0	1.351591E+0	1.148224E+0	1.180092E+0	1.201610E+0	1.395052E+0	1.186282E+0	1.173191E+0	1.254853E+0	1.141271E+0	1.403171E+0	1.279321E+0	1.351134E+0	1.108226E+0	1.392996E+0	1.295847E+0	1.397483E+0	1.228706E+0	1.176113E+0	1.165616E+0	1.201953E+0	1.438981E+0	1.131018E+0	1.167017E+0	1.176115E+0	1.241209E+0
5.358600E+2	1.194551E+0	1.253797E+0	1.026551E+0	9.595653E-1	1.188460E+0	1.225874E+0	1.103553E+0	9.880591E-1	1.164580E+0	1.053539E+0	1.123510E+0	1.085682E+0	1.091978E+0	1.033180E+0	1.065306E+0	1.119136E+0	1.211273E+0	1.090546E+0	1.073497E+0	1.031259E+0	1.225313E+0	1.203201E+0	1.087505E+0	9.439582E-1	1.163129E+0	1.023515E+0	1.248401E+0	1.034865E+0	1.116694E+0	1.049827E+0	1.072013E+0	1.146660E+0	1.197914E+0	1.144359E+0	9.377214E-1	1.072727E+0	1.258493E+0	1.211217E+0	1.014927E+0	1.045425E+0	1.191973E+0	1.146897E+0	1.126103E+0	8.508686E-1	1.158594E+0	1.277647E+0	1.017672E+0	1.205655E+0	1.204917E+0	1.219670E+0	9.631597E-1	1.110788E+0	1.211703E+0	1.184352E+0	1.036019E+0	9.630660E-1	1.023787E+0	1.012422E+0	1.119419E+0	9.915038E-1	1.060188E+0	1.051305E+0	1.016991E+0	1.154521E+0	1.110452E+0	1.069628E+0	8.862564E-1	1.026583E+0	1.228005E+0	1.146530E+0	9.879457E-1	1.060730E+0	1.043229E+0	1.000267E+0	1.080836E+0	1.030631E+0	1.072422E+0	1.049250E+0	9.763357E-1	1.171771E+0	1.109646E+0	9.444821E-1	9.017211E-1	9.290277E-1	1.184229E+0	9.598992E-1	9.661488E-1	9.408049E-1	1.099400E+0	9.421547E-1	1.039280E+0	1.022584E+0	1.023963E+0	9.983935E-1	9.710326E-1	9.599576E-1	1.090142E+0	9.938032E-1	8.863417E-1	1.106007E+0	1.217614E+0	1.027539E+0	9.818935E-1	9.946745E-1	1.039803E+0	1.009596E+0	1.036869E+0	1.097596E+0	1.022503E+0	1.024469E+0	1.040054E+0	1.121733E+0	1.164014E+0	9.669417E-1	9.171152E-1	1.034301E+0	1.253222E+0	9.520871E-1	1.003119E+0	1.024500E+0	1.125922E+0	1.131190E+0	1.069262E+0	1.051562E+0	1.106327E+0	1.137236E+0	1.020468E+0	1.167816E+0	1.161270E+0	1.006209E+0	8.972345E-1	1.040761E+0	1.243545E+0	1.098848E+0	9.322680E-1	1.071493E+0	1.047436E+0	1.073469E+0	1.060042E+0	1.060597E+0	9.807299E-1	1.042091E+0	1.069025E+0	9.985069E-1	1.161628E+0	9.844593E-1	9.252808E-1	1.093398E+0	1.155869E+0	1.017555E+0	9.958363E-1	1.097923E+0	9.266368E-1	1.140745E+0	1.091196E+0	1.159665E+0	9.589583E-1	1.120019E+0	1.164188E+0	1.261022E+0	1.040907E+0	9.281743E-1	1.000758E+0	1.026477E+0	1.177780E+0	9.775494E-1	9.713450E-1	9.852858E-1	1.132672E+0
5.360070E+2	9.756151E-1	1.047030E+0	9.690411E-1	8.539526E-1	1.058307E+0	1.057328E+0	8.935904E-1	9.069853E-1	1.024224E+0	8.987274E-1	9.519312E-1	9.448712E-1	9.518665E-1	8.841583E-1	9.163927E-1	9.263594E-1	1.016442E+0	9.594892E-1	9.641924E-1	9.300063E-1	1.004688E+0	1.076540E+0	9.567038E-1	8.439486E-1	1.031121E+0	8.266467E-1	1.032858E+0	8.647651E-1	9.910760E-1	8.632142E-1	9.487650E-1	9.915167E-1	1.010622E+0	9.604656E-1	8.930391E-1	9.721747E-1	1.059645E+0	1.041344E+0	9.009411E-1	8.939776E-1	1.009692E+0	1.024528E+0	1.005164E+0	7.431375E-1	1.038395E+0	1.025986E+0	9.291501E-1	1.007750E+0	9.947700E-1	1.060937E+0	8.356411E-1	9.997997E-1	1.062812E+0	1.060554E+0	9.142585E-1	9.158878E-1	9.303502E-1	9.159363E-1	9.624740E-1	8.840673E-1	9.278810E-1	9.004312E-1	8.301841E-1	9.916311E-1	9.513121E-1	9.763726E-1	7.749866E-1	9.011182E-1	1.017248E+0	1.068862E+0	7.720507E-1	9.131305E-1	9.572258E-1	9.217970E-1	9.278308E-1	9.102329E-1	9.125934E-1	9.074842E-1	8.153035E-1	1.015976E+0	1.003469E+0	9.723258E-1	7.795636E-1	7.844535E-1	1.006304E+0	1.003865E+0	8.467832E-1	8.624798E-1	9.760310E-1	9.630874E-1	9.680910E-1	9.295489E-1	8.762805E-1	9.196617E-1	8.320275E-1	8.703431E-1	9.364841E-1	8.720206E-1	8.083741E-1	9.340691E-1	1.025499E+0	8.341563E-1	8.208472E-1	9.119785E-1	8.800337E-1	8.583088E-1	8.558499E-1	9.048695E-1	9.413192E-1	8.970269E-1	8.854463E-1	1.002122E+0	1.018547E+0	8.285668E-1	8.375434E-1	9.687532E-1	1.072090E+0	8.250835E-1	8.132744E-1	8.980198E-1	9.822778E-1	1.015161E+0	8.971827E-1	9.800973E-1	9.775205E-1	9.880698E-1	9.361519E-1	1.031329E+0	1.034726E+0	8.878925E-1	7.660748E-1	9.428341E-1	1.119763E+0	9.137709E-1	8.432538E-1	8.883095E-1	9.600849E-1	1.009088E+0	9.432189E-1	8.993390E-1	8.999259E-1	8.970000E-1	9.391598E-1	8.449838E-1	9.618880E-1	8.467055E-1	8.307933E-1	9.972090E-1	1.063457E+0	8.953063E-1	8.792525E-1	9.158583E-1	8.555305E-1	1.014782E+0	9.355796E-1	9.757948E-1	8.915062E-1	9.868434E-1	9.425203E-1	1.082512E+0	9.212856E-1	8.628948E-1	8.488518E-1	9.151312E-1	1.086131E+0	8.922213E-1	8.766656E-1	9.214100E-1	9.872126E-1
5.362680E+2	7.730069E-1	8.094693E-1	7.102498E-1	6.047069E-1	7.697050E-1	7.857821E-1	7.654884E-1	6.738192E-1	7.543097E-1	7.086495E-1	7.189320E-1	7.230288E-1	7.216841E-1	6.687730E-1	6.804313E-1	7.138100E-1	7.023576E-1	7.391263E-1	6.946534E-1	6.588676E-1	8.259517E-1	8.225820E-1	7.601861E-1	6.542539E-1	7.627781E-1	6.442362E-1	7.746189E-1	6.496745E-1	7.941609E-1	6.777958E-1	7.244659E-1	7.673380E-1	7.447642E-1	7.512491E-1	6.684208E-1	6.873932E-1	7.742546E-1	7.387200E-1	6.710690E-1	6.750024E-1	8.041115E-1	7.490392E-1	7.692018E-1	5.787056E-1	7.946175E-1	7.955260E-1	6.902559E-1	7.930361E-1	7.992680E-1	7.911537E-1	6.310419E-1	7.757152E-1	8.286397E-1	8.425610E-1	7.469913E-1	6.938353E-1	6.692052E-1	6.645963E-1	7.403571E-1	6.743104E-1	6.815612E-1	7.087316E-1	6.857287E-1	7.494385E-1	7.492204E-1	7.194808E-1	5.797403E-1	7.566207E-1	7.850579E-1	8.333922E-1	6.236591E-1	7.368652E-1	6.915731E-1	6.776689E-1	6.930469E-1	6.991977E-1	6.959505E-1	6.722822E-1	6.819758E-1	7.599163E-1	7.203332E-1	7.075154E-1	6.054340E-1	6.221370E-1	8.059643E-1	8.077104E-1	6.198718E-1	6.584553E-1	7.675363E-1	7.537611E-1	6.911734E-1	6.812233E-1	7.134049E-1	6.668919E-1	6.534889E-1	6.324954E-1	7.358746E-1	7.107561E-1	6.205692E-1	7.001793E-1	8.011268E-1	7.474667E-1	6.545679E-1	6.896487E-1	7.306551E-1	7.315038E-1	6.879749E-1	7.603251E-1	6.898910E-1	7.105394E-1	6.391138E-1	7.363191E-1	7.323754E-1	6.177660E-1	6.082255E-1	7.165392E-1	8.268222E-1	6.536902E-1	6.507233E-1	6.843610E-1	7.413488E-1	7.102285E-1	6.905611E-1	7.361041E-1	7.139335E-1	7.445589E-1	6.690532E-1	7.629531E-1	8.145236E-1	6.862711E-1	5.817584E-1	7.272547E-1	8.173417E-1	7.013523E-1	6.361709E-1	7.063850E-1	7.308611E-1	7.216685E-1	7.391140E-1	7.485977E-1	6.731521E-1	6.990909E-1	7.373588E-1	6.339710E-1	7.858928E-1	6.226351E-1	6.765653E-1	6.891034E-1	7.807855E-1	6.380757E-1	6.721295E-1	6.882766E-1	6.356279E-1	7.733502E-1	7.156409E-1	6.916315E-1	6.229481E-1	7.516326E-1	7.604836E-1	7.913411E-1	7.372054E-1	6.582674E-1	6.804612E-1	6.924393E-1	8.118396E-1	6.497407E-1	6.894097E-1	6.523326E-1	7.018858E-1
5.365140E+2	6.119592E-1	6.400967E-1	5.748926E-1	6.230138E-1	6.296482E-1	5.924899E-1	5.798962E-1	5.456098E-1	6.025224E-1	5.735631E-1	6.488322E-1	5.490082E-1	5.804608E-1	5.540958E-1	5.134517E-1	5.697570E-1	6.122229E-1	6.208269E-1	5.796271E-1	5.426659E-1	6.514066E-1	6.420881E-1	5.974842E-1	5.277905E-1	6.451978E-1	5.975213E-1	6.458437E-1	5.110054E-1	6.298381E-1	5.877693E-1	6.023865E-1	6.018025E-1	6.507660E-1	5.848409E-1	5.313556E-1	5.917628E-1	6.711969E-1	6.430882E-1	5.583499E-1	5.760044E-1	6.232013E-1	6.362805E-1	6.088262E-1	4.722345E-1	6.284969E-1	6.225088E-1	6.062742E-1	6.356293E-1	6.652721E-1	6.324186E-1	5.216576E-1	5.972906E-1	6.231278E-1	6.958866E-1	5.748045E-1	5.422358E-1	5.769657E-1	5.597720E-1	6.100136E-1	5.342591E-1	5.712047E-1	5.584483E-1	5.354715E-1	6.079813E-1	5.752941E-1	6.004193E-1	4.595485E-1	5.197869E-1	6.750357E-1	6.762067E-1	5.037826E-1	5.563300E-1	5.641608E-1	5.531139E-1	5.710386E-1	5.409219E-1	5.804492E-1	5.459817E-1	5.446075E-1	6.110624E-1	5.752949E-1	6.275388E-1	4.923837E-1	5.058203E-1	6.672668E-1	6.203497E-1	5.400981E-1	5.169647E-1	6.151744E-1	6.085416E-1	5.683895E-1	5.693015E-1	5.596458E-1	5.662582E-1	5.061941E-1	5.671381E-1	6.327234E-1	5.706229E-1	4.674801E-1	5.741842E-1	6.620587E-1	6.122804E-1	5.004982E-1	5.730609E-1	5.656895E-1	6.392254E-1	5.589314E-1	6.006784E-1	5.784147E-1	5.936192E-1	5.710400E-1	6.299980E-1	6.392502E-1	5.883244E-1	5.225768E-1	5.833076E-1	6.351188E-1	6.111499E-1	4.930249E-1	5.535934E-1	6.133756E-1	6.118859E-1	5.775167E-1	5.830668E-1	5.791521E-1	6.215281E-1	5.228265E-1	6.471688E-1	6.365030E-1	5.951191E-1	4.893104E-1	5.764892E-1	6.858230E-1	6.067099E-1	5.261391E-1	5.641188E-1	5.970441E-1	5.967370E-1	6.256472E-1	6.083729E-1	5.493389E-1	5.953637E-1	5.979448E-1	4.961272E-1	6.336429E-1	5.179895E-1	5.351394E-1	5.733764E-1	6.619700E-1	5.164635E-1	5.177179E-1	5.829771E-1	4.782730E-1	6.616325E-1	6.195036E-1	6.202105E-1	5.192717E-1	5.893040E-1	6.006139E-1	6.778868E-1	5.748184E-1	5.277079E-1	5.450418E-1	5.536093E-1	6.416348E-1	5.386300E-1	5.484420E-1	5.429454E-1	5.967073E-1
5.367970E+2	5.392279E-1	5.836389E-1	5.433326E-1	5.047274E-1	4.888845E-1	5.837950E-1	5.280309E-1	4.582512E-1	5.339321E-1	4.773294E-1	5.406771E-1	5.051714E-1	5.131850E-1	4.545531E-1	5.046923E-1	4.934934E-1	5.512081E-1	5.413799E-1	5.029434E-1	5.277159E-1	5.410933E-1	5.521579E-1	5.515450E-1	5.090793E-1	5.882114E-1	5.102088E-1	5.941959E-1	4.617009E-1	5.653311E-1	5.102631E-1	4.879008E-1	5.357373E-1	5.771123E-1	5.486653E-1	5.047874E-1	4.750378E-1	5.549262E-1	5.959015E-1	4.848929E-1	4.743841E-1	5.718062E-1	5.312099E-1	4.964323E-1	4.243541E-1	5.299053E-1	5.972057E-1	4.990270E-1	5.447004E-1	5.993726E-1	5.592572E-1	4.604486E-1	5.038635E-1	5.923704E-1	6.010188E-1	4.893266E-1	4.459922E-1	4.853256E-1	4.668596E-1	5.122550E-1	4.728668E-1	4.657262E-1	5.288646E-1	4.670147E-1	5.186773E-1	5.407908E-1	5.364894E-1	4.285821E-1	5.007554E-1	5.414365E-1	5.781963E-1	4.252222E-1	5.057072E-1	5.004551E-1	4.833630E-1	5.288299E-1	4.881633E-1	5.173918E-1	5.021630E-1	4.753461E-1	5.671000E-1	5.517005E-1	5.576338E-1	4.243396E-1	4.440479E-1	5.432802E-1	5.466231E-1	4.550061E-1	4.891719E-1	5.337504E-1	5.313521E-1	5.272442E-1	5.035475E-1	5.037334E-1	5.396196E-1	4.513574E-1	4.835887E-1	5.160571E-1	5.189069E-1	4.293497E-1	5.108393E-1	5.688685E-1	5.425652E-1	4.214284E-1	4.998549E-1	5.273708E-1	5.739395E-1	4.997868E-1	4.964044E-1	5.208588E-1	5.182062E-1	4.943138E-1	5.533842E-1	5.461257E-1	4.976445E-1	4.247712E-1	5.198981E-1	6.019934E-1	5.347016E-1	4.517805E-1	4.792775E-1	5.069487E-1	5.722658E-1	4.858246E-1	4.885015E-1	5.213890E-1	5.227209E-1	5.139827E-1	5.942603E-1	5.557146E-1	5.256989E-1	4.245978E-1	5.349237E-1	6.098663E-1	5.765649E-1	4.439246E-1	5.080932E-1	5.220814E-1	5.392532E-1	5.215809E-1	5.305484E-1	4.900392E-1	5.202722E-1	4.897237E-1	4.503966E-1	5.693900E-1	4.978881E-1	5.022206E-1	5.042403E-1	5.532504E-1	5.463890E-1	5.053153E-1	5.068906E-1	4.236266E-1	6.106469E-1	4.970853E-1	5.092802E-1	4.543183E-1	5.555135E-1	5.092601E-1	6.064833E-1	4.973439E-1	4.944406E-1	4.272858E-1	4.796132E-1	5.827177E-1	5.153028E-1	4.860235E-1	4.694878E-1	5.295715E-1
5.370070E+2	5.399702E-1	5.557762E-1	4.935379E-1	5.342987E-1	5.730598E-1	5.630613E-1	5.186571E-1	4.871611E-1	5.377428E-1	4.683632E-1	5.279926E-1	4.673118E-1	5.070693E-1	4.539706E-1	5.041449E-1	4.807826E-1	5.629953E-1	5.321015E-1	4.966479E-1	4.767501E-1	5.208460E-1	5.844565E-1	5.368701E-1	4.852061E-1	5.773913E-1	4.957496E-1	5.659612E-1	4.937486E-1	5.442818E-1	5.054936E-1	5.054240E-1	5.260870E-1	5.616794E-1	4.992252E-1	4.450101E-1	5.101960E-1	5.569082E-1	5.556352E-1	4.937579E-1	4.553712E-1	5.567301E-1	5.369760E-1	5.516430E-1	4.237242E-1	5.737986E-1	5.794254E-1	5.160505E-1	5.699160E-1	5.583686E-1	5.723218E-1	4.440131E-1	4.898144E-1	5.427403E-1	5.700695E-1	5.139245E-1	4.818477E-1	4.841277E-1	4.900873E-1	5.242255E-1	4.901334E-1	4.699937E-1	5.075648E-1	4.722359E-1	5.315369E-1	4.781210E-1	5.118558E-1	4.438027E-1	4.922964E-1	5.728722E-1	6.096338E-1	4.624660E-1	4.703320E-1	4.966325E-1	4.640573E-1	5.017897E-1	4.631367E-1	4.730647E-1	4.757435E-1	4.828498E-1	5.285370E-1	5.294935E-1	5.410463E-1	4.404134E-1	4.335336E-1	5.734014E-1	5.459466E-1	4.845519E-1	4.645370E-1	5.331335E-1	5.483595E-1	5.011195E-1	5.007492E-1	4.769930E-1	4.792387E-1	4.322280E-1	4.620271E-1	5.438009E-1	5.283601E-1	4.139840E-1	4.871718E-1	5.595493E-1	5.401400E-1	4.254982E-1	4.890096E-1	4.838556E-1	5.569905E-1	4.806694E-1	4.856174E-1	5.123768E-1	4.761152E-1	4.793147E-1	5.854365E-1	5.209748E-1	5.153095E-1	4.286393E-1	5.134859E-1	5.956505E-1	5.217541E-1	4.505675E-1	4.314002E-1	4.925847E-1	5.793411E-1	4.864525E-1	4.711767E-1	5.041261E-1	5.399327E-1	5.110343E-1	5.789242E-1	5.735884E-1	5.444121E-1	4.465539E-1	4.877212E-1	5.775143E-1	5.968954E-1	4.327979E-1	4.684352E-1	4.960616E-1	5.039959E-1	5.323231E-1	5.256407E-1	4.574567E-1	4.782729E-1	5.056384E-1	4.543165E-1	5.658988E-1	5.286313E-1	5.107549E-1	4.862052E-1	5.843128E-1	5.374749E-1	4.978739E-1	4.817546E-1	4.374531E-1	5.611614E-1	4.977769E-1	5.708239E-1	4.374553E-1	5.276861E-1	5.401596E-1	5.406320E-1	5.115988E-1	5.534436E-1	4.596686E-1	5.352867E-1	5.526048E-1	5.736209E-1	4.951404E-1	4.678909E-1	5.262148E-1
5.372800E+2	5.570396E-1	5.785059E-1	5.215908E-1	5.335945E-1	5.744744E-1	5.697494E-1	5.524016E-1	4.331118E-1	5.345672E-1	5.054219E-1	5.506914E-1	4.918868E-1	5.209688E-1	4.760918E-1	5.019550E-1	5.125592E-1	6.004359E-1	4.984675E-1	5.224003E-1	4.991748E-1	5.850784E-1	5.673576E-1	5.272992E-1	5.129501E-1	5.889324E-1	5.174386E-1	5.570097E-1	4.863531E-1	5.863812E-1	5.245719E-1	5.422229E-1	5.602332E-1	5.848282E-1	5.552970E-1	4.842579E-1	5.073831E-1	6.018309E-1	6.003055E-1	5.247875E-1	4.835628E-1	5.820848E-1	6.055283E-1	5.200939E-1	4.476642E-1	5.785259E-1	5.896833E-1	4.780317E-1	5.653312E-1	5.796022E-1	5.795076E-1	4.621489E-1	5.727048E-1	5.818853E-1	6.043828E-1	4.825616E-1	4.705247E-1	5.002997E-1	5.014040E-1	5.169100E-1	4.990865E-1	5.077956E-1	5.016481E-1	5.261894E-1	5.379674E-1	5.562820E-1	5.300375E-1	4.285820E-1	4.972311E-1	6.064502E-1	6.016202E-1	4.444260E-1	5.197351E-1	4.756098E-1	5.356762E-1	5.308080E-1	4.746352E-1	5.067784E-1	4.912087E-1	4.724605E-1	5.701850E-1	5.274118E-1	5.576337E-1	4.516646E-1	4.236764E-1	5.853096E-1	5.547397E-1	4.745064E-1	4.746435E-1	5.226470E-1	5.385479E-1	5.363874E-1	5.231336E-1	4.642303E-1	5.402112E-1	4.800510E-1	4.627007E-1	5.189024E-1	5.283603E-1	4.202442E-1	5.317225E-1	5.832051E-1	5.789379E-1	4.923586E-1	4.740970E-1	5.091853E-1	5.670343E-1	4.663310E-1	5.560918E-1	5.032888E-1	5.123602E-1	4.827760E-1	5.799646E-1	5.379685E-1	4.941117E-1	4.413482E-1	5.206104E-1	6.069272E-1	5.433326E-1	4.711897E-1	5.314414E-1	5.513480E-1	5.567010E-1	4.952449E-1	5.180983E-1	5.087735E-1	5.208084E-1	4.821426E-1	5.689560E-1	5.499947E-1	5.601069E-1	4.488651E-1	5.116749E-1	6.063496E-1	5.772662E-1	4.457785E-1	5.276081E-1	5.078330E-1	5.430856E-1	5.900631E-1	5.116188E-1	5.095884E-1	4.922725E-1	5.419241E-1	4.673822E-1	5.421536E-1	5.339524E-1	4.711313E-1	5.140093E-1	5.913022E-1	5.291978E-1	5.022150E-1	5.164015E-1	4.466705E-1	5.934018E-1	4.853270E-1	5.062410E-1	4.624375E-1	5.435872E-1	5.811341E-1	6.088634E-1	5.208960E-1	5.113881E-1	4.961731E-1	5.085070E-1	5.768259E-1	5.662545E-1	4.930368E-1	4.734801E-1	5.083116E-1
5.375060E+2	6.512936E-1	7.024197E-1	5.847113E-1	5.997785E-1	6.529911E-1	6.627173E-1	5.948934E-1	5.386962E-1	6.120485E-1	5.938862E-1	6.488319E-1	5.735839E-1	6.266085E-1	5.465278E-1	5.961206E-1	5.690507E-1	6.129157E-1	5.947310E-1	5.624590E-1	5.630522E-1	6.562936E-1	6.642539E-1	5.821711E-1	6.000554E-1	7.238255E-1	5.686022E-1	6.561727E-1	5.744853E-1	6.536036E-1	5.985011E-1	6.018025E-1	6.411454E-1	6.584828E-1	5.914728E-1	5.549042E-1	5.931695E-1	7.042281E-1	6.563006E-1	5.760808E-1	5.360117E-1	6.492413E-1	6.574226E-1	6.219716E-1	5.459455E-1	6.899477E-1	6.478116E-1	5.824418E-1	6.119416E-1	6.938288E-1	6.820644E-1	5.505628E-1	6.176621E-1	6.503893E-1	6.138025E-1	5.938684E-1	5.617359E-1	5.841531E-1	5.472643E-1	6.273043E-1	5.227479E-1	5.925445E-1	6.004565E-1	5.731810E-1	6.551334E-1	5.943064E-1	6.408884E-1	4.873661E-1	5.712411E-1	6.650337E-1	6.460020E-1	5.538281E-1	6.039035E-1	5.686203E-1	5.724197E-1	5.862064E-1	5.666244E-1	5.792009E-1	5.865779E-1	5.469164E-1	6.673643E-1	6.342820E-1	6.382024E-1	5.202450E-1	5.064775E-1	6.357452E-1	6.778435E-1	5.436433E-1	5.340194E-1	6.188756E-1	6.216244E-1	6.134538E-1	5.630057E-1	5.809168E-1	5.579702E-1	4.883402E-1	5.374914E-1	6.554876E-1	5.817445E-1	4.856915E-1	6.222154E-1	6.527391E-1	7.020006E-1	5.504980E-1	5.798394E-1	5.520504E-1	6.524079E-1	5.684906E-1	6.258472E-1	5.553922E-1	6.070655E-1	5.733479E-1	6.573595E-1	6.589626E-1	6.177659E-1	5.281021E-1	6.167938E-1	6.421666E-1	6.247137E-1	5.306297E-1	5.728866E-1	6.153344E-1	6.996156E-1	6.076618E-1	5.888419E-1	5.685288E-1	6.177032E-1	5.817889E-1	6.786064E-1	6.372182E-1	6.434115E-1	4.904664E-1	6.096009E-1	6.696468E-1	6.733103E-1	5.020312E-1	6.069242E-1	6.342149E-1	6.442568E-1	5.974486E-1	5.852367E-1	5.819214E-1	5.520911E-1	6.577845E-1	5.157253E-1	6.469119E-1	5.842058E-1	5.576940E-1	6.184650E-1	6.689591E-1	6.151538E-1	5.567856E-1	5.816188E-1	5.190932E-1	6.946231E-1	6.063630E-1	6.407253E-1	5.386331E-1	5.965927E-1	6.207657E-1	6.334578E-1	6.157251E-1	6.287661E-1	5.538732E-1	5.662944E-1	6.756759E-1	6.669296E-1	5.210900E-1	5.437437E-1	5.911124E-1
5.377630E+2	8.019507E-1	7.530114E-1	6.976253E-1	7.560856E-1	8.255861E-1	8.152114E-1	6.992506E-1	6.945591E-1	7.612958E-1	6.680044E-1	7.349548E-1	6.725498E-1	7.416998E-1	6.786693E-1	6.667443E-1	7.293458E-1	7.155309E-1	7.095519E-1	6.723348E-1	6.935250E-1	7.735885E-1	8.156159E-1	7.633762E-1	6.839341E-1	7.295958E-1	7.237623E-1	8.104277E-1	6.583024E-1	8.057035E-1	6.831614E-1	7.244660E-1	7.599152E-1	7.763301E-1	7.530579E-1	6.919695E-1	7.211453E-1	8.277648E-1	7.808736E-1	7.293292E-1	6.881147E-1	7.897210E-1	7.772286E-1	7.810328E-1	5.579156E-1	7.763838E-1	7.948412E-1	7.226006E-1	8.037333E-1	7.780336E-1	7.905001E-1	6.372764E-1	8.220772E-1	8.034750E-1	8.580354E-1	6.824211E-1	6.856580E-1	6.949603E-1	6.985451E-1	7.729432E-1	6.941349E-1	6.949743E-1	6.838812E-1	7.327204E-1	7.637276E-1	6.964087E-1	7.200674E-1	6.012593E-1	6.769712E-1	7.779135E-1	8.192141E-1	6.492643E-1	7.289359E-1	7.591009E-1	6.975982E-1	7.484459E-1	7.039327E-1	7.059401E-1	6.819480E-1	6.565799E-1	7.637724E-1	7.154755E-1	7.667572E-1	6.156139E-1	5.932219E-1	8.325828E-1	7.935068E-1	6.340538E-1	6.546651E-1	6.867286E-1	7.020839E-1	7.440751E-1	6.833216E-1	7.103664E-1	7.456239E-1	6.349971E-1	6.419286E-1	7.572156E-1	7.252144E-1	6.347971E-1	7.496022E-1	7.996926E-1	8.123323E-1	6.603820E-1	6.550791E-1	6.994800E-1	7.679134E-1	6.598958E-1	7.452230E-1	7.189720E-1	6.941708E-1	6.523820E-1	8.051150E-1	7.718001E-1	7.649731E-1	6.391695E-1	6.923154E-1	8.035643E-1	7.289059E-1	6.349535E-1	6.779295E-1	7.883595E-1	7.930055E-1	7.276150E-1	7.079510E-1	7.238927E-1	7.655953E-1	6.855629E-1	7.637196E-1	7.630481E-1	7.677650E-1	6.424265E-1	7.033010E-1	8.672762E-1	7.952933E-1	6.324623E-1	7.233812E-1	7.166119E-1	8.044453E-1	7.216575E-1	7.030250E-1	6.894434E-1	6.685456E-1	7.188977E-1	6.770879E-1	7.363067E-1	6.953549E-1	6.284073E-1	7.191628E-1	8.227203E-1	7.488633E-1	6.653082E-1	7.079779E-1	6.270693E-1	7.763496E-1	7.626713E-1	7.577335E-1	6.354387E-1	7.271179E-1	7.457061E-1	8.048284E-1	7.595180E-1	7.404949E-1	6.857602E-1	7.185140E-1	7.188815E-1	7.915462E-1	6.880071E-1	7.353710E-1	7.231457E-1
5.380480E+2	9.778415E-1	9.671102E-1	9.290649E-1	8.884530E-1	9.387635E-1	9.068415E-1	9.342081E-1	7.970010E-1	9.226093E-1	8.096658E-1	9.626134E-1	8.618465E-1	9.301829E-1	8.247816E-1	8.424832E-1	8.543329E-1	9.221475E-1	8.904810E-1	8.646172E-1	8.430250E-1	1.004687E+0	9.486106E-1	8.801388E-1	8.420134E-1	9.092132E-1	8.527847E-1	9.509100E-1	8.622994E-1	9.578043E-1	8.709645E-1	9.107980E-1	9.647931E-1	1.032368E+0	8.905259E-1	7.632193E-1	8.188846E-1	9.816913E-1	9.664748E-1	8.521801E-1	8.343167E-1	9.774843E-1	9.316310E-1	9.262914E-1	6.952568E-1	9.674897E-1	9.952131E-1	8.207683E-1	9.183499E-1	9.984311E-1	9.191859E-1	7.619626E-1	9.091824E-1	9.789296E-1	9.636680E-1	8.097168E-1	8.171278E-1	7.770170E-1	8.105166E-1	8.833363E-1	8.290700E-1	8.260607E-1	8.607893E-1	8.371456E-1	9.101859E-1	8.928679E-1	9.171346E-1	7.057058E-1	8.531870E-1	9.315163E-1	1.011536E+0	7.755423E-1	8.307918E-1	8.833271E-1	8.364768E-1	8.843039E-1	8.040393E-1	8.251873E-1	8.295130E-1	7.570088E-1	8.840897E-1	8.514921E-1	9.249321E-1	7.404514E-1	6.799661E-1	9.537675E-1	9.517827E-1	7.817829E-1	7.835232E-1	8.736344E-1	9.258014E-1	8.466132E-1	7.826517E-1	8.015281E-1	8.486259E-1	7.612498E-1	7.739914E-1	8.689023E-1	8.342073E-1	7.235777E-1	8.400955E-1	9.444957E-1	9.456998E-1	7.789868E-1	8.286048E-1	8.683429E-1	9.537262E-1	8.223950E-1	9.091848E-1	8.195435E-1	8.841655E-1	8.727549E-1	9.083095E-1	9.295011E-1	8.809728E-1	7.010581E-1	8.818320E-1	9.593230E-1	8.848861E-1	7.799152E-1	8.086976E-1	9.241673E-1	9.875678E-1	8.450564E-1	8.075694E-1	9.051500E-1	8.962757E-1	8.099729E-1	9.592511E-1	9.124705E-1	8.800449E-1	7.799422E-1	8.336349E-1	1.001607E+0	9.291937E-1	7.381670E-1	8.014387E-1	9.074249E-1	8.772580E-1	8.834641E-1	8.348356E-1	8.445358E-1	8.435453E-1	9.073295E-1	8.410635E-1	9.625866E-1	8.656248E-1	7.923885E-1	8.491682E-1	9.190151E-1	8.997635E-1	7.980153E-1	8.268637E-1	7.495295E-1	1.021530E+0	8.795567E-1	9.210895E-1	7.996965E-1	9.477520E-1	8.867670E-1	9.389094E-1	8.555870E-1	9.181313E-1	8.323665E-1	8.939892E-1	9.080707E-1	9.290534E-1	7.932071E-1	8.024410E-1	9.156007E-1
5.382640E+2	1.112171E+0	1.145281E+0	1.135959E+0	1.051096E+0	1.106407E+0	1.109497E+0	1.163544E+0	9.138984E-1	1.128379E+0	9.549141E-1	1.130854E+0	1.005314E+0	1.032487E+0	9.877755E-1	9.618323E-1	9.863816E-1	1.095483E+0	1.065031E+0	1.005395E+0	9.884480E-1	1.061241E+0	1.172171E+0	1.104731E+0	9.684767E-1	1.091715E+0	1.031857E+0	1.127890E+0	9.652227E-1	1.110583E+0	9.937822E-1	1.066757E+0	1.091728E+0	1.171260E+0	1.043066E+0	9.570434E-1	9.946757E-1	1.167988E+0	1.097968E+0	1.043423E+0	9.405267E-1	1.075477E+0	1.121911E+0	1.072206E+0	8.458284E-1	1.089041E+0	1.177120E+0	1.013700E+0	1.126187E+0	1.165377E+0	1.158267E+0	9.376571E-1	1.035625E+0	1.159974E+0	1.135236E+0	1.045244E+0	1.007099E+0	9.680840E-1	1.007061E+0	1.095477E+0	9.755159E-1	1.004094E+0	9.294215E-1	9.264881E-1	1.049500E+0	1.080877E+0	1.029745E+0	8.642120E-1	1.032927E+0	1.135843E+0	1.161323E+0	9.885276E-1	9.698528E-1	1.007554E+0	9.853205E-1	1.009610E+0	9.846361E-1	1.004369E+0	9.455033E-1	9.330477E-1	1.073050E+0	1.031922E+0	1.105027E+0	8.840417E-1	9.940856E-1	1.141499E+0	1.087062E+0	8.993755E-1	9.610178E-1	1.040799E+0	1.046818E+0	1.009890E+0	9.246526E-1	9.577186E-1	9.841861E-1	9.193840E-1	8.972949E-1	1.096545E+0	9.976961E-1	8.590241E-1	1.002983E+0	1.099335E+0	1.078461E+0	9.167771E-1	9.594265E-1	1.002783E+0	1.123846E+0	9.335155E-1	1.060201E+0	9.922106E-1	1.001086E+0	9.442894E-1	1.087336E+0	1.038260E+0	1.008160E+0	8.541208E-1	9.637662E-1	1.164418E+0	1.021755E+0	8.569447E-1	9.716210E-1	1.020800E+0	1.106429E+0	1.009600E+0	9.728787E-1	1.030636E+0	1.045442E+0	9.349730E-1	1.144047E+0	1.141967E+0	1.094342E+0	8.452328E-1	1.036534E+0	1.160554E+0	1.075013E+0	9.378315E-1	9.858811E-1	9.730949E-1	1.079601E+0	1.090926E+0	1.000300E+0	9.676969E-1	9.587274E-1	9.894504E-1	9.227251E-1	1.132296E+0	1.027618E+0	9.204046E-1	9.844338E-1	1.093743E+0	1.027743E+0	9.313430E-1	1.039500E+0	8.759404E-1	1.166239E+0	1.067681E+0	1.013025E+0	8.927552E-1	1.039186E+0	1.053354E+0	1.137255E+0	1.022933E+0	1.046808E+0	9.124398E-1	1.012383E+0	1.124754E+0	1.094185E+0	9.425905E-1	9.621313E-1	1.058824E+0
5.385170E+2	1.309584E+0	1.349847E+0	1.349864E+0	1.271475E+0	1.334176E+0	1.362983E+0	1.412248E+0	1.090501E+0	1.243968E+0	1.165911E+0	1.389891E+0	1.155423E+0	1.193726E+0	1.160664E+0	1.215860E+0	1.228588E+0	1.331221E+0	1.332947E+0	1.234875E+0	1.195030E+0	1.325154E+0	1.401430E+0	1.344634E+0	1.180754E+0	1.339861E+0	1.160878E+0	1.346879E+0	1.179698E+0	1.344166E+0	1.211397E+0	1.248415E+0	1.294380E+0	1.390117E+0	1.264944E+0	1.229364E+0	1.253440E+0	1.407135E+0	1.394302E+0	1.248597E+0	1.190315E+0	1.338620E+0	1.300659E+0	1.295680E+0	1.004590E+0	1.355778E+0	1.371337E+0	1.172583E+0	1.345487E+0	1.360147E+0	1.379711E+0	1.218199E+0	1.229504E+0	1.363392E+0	1.330355E+0	1.225424E+0	1.117810E+0	1.184907E+0	1.127968E+0	1.337547E+0	1.148822E+0	1.176640E+0	1.177922E+0	1.159125E+0	1.381709E+0	1.263956E+0	1.215081E+0	1.243159E+0	1.185177E+0	1.304452E+0	1.394945E+0	1.256215E+0	1.140629E+0	1.198671E+0	1.156584E+0	1.352552E+0	1.129384E+0	1.174813E+0	1.137532E+0	1.118321E+0	1.282063E+0	1.179042E+0	1.248982E+0	1.153540E+0	1.243146E+0	1.348143E+0	1.314330E+0	1.170606E+0	1.123353E+0	1.228321E+0	1.157368E+0	1.307054E+0	1.181372E+0	1.159490E+0	1.187823E+0	1.092822E+0	1.106843E+0	1.235265E+0	1.255720E+0	1.018374E+0	1.175617E+0	1.353814E+0	1.319131E+0	1.078404E+0	1.161421E+0	1.188532E+0	1.282039E+0	1.167107E+0	1.246455E+0	1.137616E+0	1.198681E+0	1.141587E+0	1.283560E+0	1.266655E+0	1.235449E+0	9.933696E-1	1.188906E+0	1.325110E+0	1.217808E+0	1.098951E+0	1.085239E+0	1.260423E+0	1.358299E+0	1.186075E+0	1.217593E+0	1.233803E+0	1.258992E+0	1.162568E+0	1.316574E+0	1.265652E+0	1.288720E+0	1.060752E+0	1.216183E+0	1.323720E+0	1.266400E+0	1.086189E+0	1.141998E+0	1.205417E+0	1.358590E+0	1.267503E+0	1.172776E+0	1.188604E+0	1.128636E+0	1.217350E+0	1.090621E+0	1.251023E+0	1.207940E+0	1.066098E+0	1.248201E+0	1.353894E+0	1.228943E+0	1.168850E+0	1.184880E+0	1.002351E+0	1.383675E+0	1.223990E+0	1.316182E+0	1.072002E+0	1.259819E+0	1.178966E+0	1.371302E+0	1.220649E+0	1.259595E+0	1.106149E+0	1.180107E+0	1.248480E+0	1.255020E+0	1.156497E+0	1.104255E+0	1.162883E+0
5.387970E+2	1.506255E+0	1.571279E+0	1.593930E+0	1.439750E+0	1.616408E+0	1.593061E+0	1.628462E+0	1.367660E+0	1.528489E+0	1.416360E+0	1.611540E+0	1.383242E+0	1.453932E+0	1.336465E+0	1.457297E+0	1.441138E+0	1.529516E+0	1.490101E+0	1.456342E+0	1.356081E+0	1.629560E+0	1.607257E+0	1.531585E+0	1.383352E+0	1.595939E+0	1.363310E+0	1.598919E+0	1.390473E+0	1.579106E+0	1.422452E+0	1.498414E+0	1.512619E+0	1.620905E+0	1.470540E+0	1.404469E+0	1.470015E+0	1.735467E+0	1.617023E+0	1.460737E+0	1.354222E+0	1.549683E+0	1.581915E+0	1.571736E+0	1.245881E+0	1.624541E+0	1.588804E+0	1.412615E+0	1.557144E+0	1.630334E+0	1.665173E+0	1.333819E+0	1.454993E+0	1.686339E+0	1.592079E+0	1.476327E+0	1.358734E+0	1.417299E+0	1.412065E+0	1.538381E+0	1.372009E+0	1.433324E+0	1.393291E+0	1.376098E+0	1.566035E+0	1.410421E+0	1.493089E+0	1.412161E+0	1.427651E+0	1.608796E+0	1.605760E+0	1.481418E+0	1.371177E+0	1.406989E+0	1.360854E+0	1.564912E+0	1.392502E+0	1.426419E+0	1.363069E+0	1.331301E+0	1.538122E+0	1.462181E+0	1.485950E+0	1.409107E+0	1.480379E+0	1.682979E+0	1.553773E+0	1.400474E+0	1.362118E+0	1.446687E+0	1.437996E+0	1.538905E+0	1.363246E+0	1.388611E+0	1.441183E+0	1.260520E+0	1.298874E+0	1.510570E+0	1.460917E+0	1.406504E+0	1.372611E+0	1.524421E+0	1.507666E+0	1.487704E+0	1.358673E+0	1.427537E+0	1.593396E+0	1.552445E+0	1.487363E+0	1.350267E+0	1.424335E+0	1.401188E+0	1.567345E+0	1.543309E+0	1.357924E+0	1.207213E+0	1.374859E+0	1.567562E+0	1.422494E+0	1.277271E+0	1.316047E+0	1.456954E+0	1.620782E+0	1.434776E+0	1.475302E+0	1.411745E+0	1.490394E+0	1.374832E+0	1.616388E+0	1.481563E+0	1.464385E+0	1.204044E+0	1.436695E+0	1.658496E+0	1.522985E+0	1.242581E+0	1.384355E+0	1.378884E+0	1.551734E+0	1.447441E+0	1.364183E+0	1.367810E+0	1.359001E+0	1.419790E+0	1.244144E+0	1.468924E+0	1.389441E+0	1.333103E+0	1.413526E+0	1.621809E+0	1.505914E+0	1.335665E+0	1.465452E+0	1.186042E+0	1.575621E+0	1.365773E+0	1.518290E+0	1.279979E+0	1.484432E+0	1.434219E+0	1.592657E+0	1.387374E+0	1.451669E+0	1.315752E+0	1.375316E+0	1.510990E+0	1.543541E+0	1.349365E+0	1.295883E+0	1.364290E+0
5.390130E+2	1.780111E+0	1.805908E+0	1.833084E+0	1.691812E+0	1.854082E+0	1.873971E+0	1.832175E+0	1.544264E+0	1.791419E+0	1.550850E+0	1.845873E+0	1.551286E+0	1.721924E+0	1.577463E+0	1.633033E+0	1.629679E+0	1.806159E+0	1.660010E+0	1.641186E+0	1.549754E+0	1.869041E+0	1.819414E+0	1.704494E+0	1.571761E+0	1.832540E+0	1.542385E+0	1.754549E+0	1.510037E+0	1.799785E+0	1.641256E+0	1.609980E+0	1.805091E+0	1.815912E+0	1.704480E+0	1.597085E+0	1.635963E+0	1.862306E+0	1.744742E+0	1.720372E+0	1.566638E+0	1.735390E+0	1.745927E+0	1.742631E+0	1.626406E+0	1.723131E+0	1.801484E+0	1.632216E+0	1.856676E+0	1.795817E+0	1.838933E+0	1.577523E+0	1.743000E+0	1.899541E+0	1.860537E+0	1.628219E+0	1.561914E+0	1.514334E+0	1.545478E+0	1.661409E+0	1.507580E+0	1.558313E+0	1.607473E+0	1.550142E+0	1.672482E+0	1.665329E+0	1.657898E+0	1.589563E+0	1.595409E+0	1.770256E+0	1.804245E+0	1.661236E+0	1.647469E+0	1.603841E+0	1.603114E+0	1.797058E+0	1.601506E+0	1.577506E+0	1.548010E+0	1.531582E+0	1.774129E+0	1.773074E+0	1.672564E+0	1.551626E+0	1.682125E+0	1.873514E+0	1.810128E+0	1.670525E+0	1.576881E+0	1.647780E+0	1.630970E+0	1.781865E+0	1.556312E+0	1.555740E+0	1.641861E+0	1.474130E+0	1.515832E+0	1.657114E+0	1.731171E+0	1.531709E+0	1.548032E+0	1.711523E+0	1.789557E+0	1.681313E+0	1.570156E+0	1.617833E+0	1.753476E+0	1.820090E+0	1.623280E+0	1.583521E+0	1.586270E+0	1.622711E+0	1.787022E+0	1.775782E+0	1.605821E+0	1.486818E+0	1.629923E+0	1.786752E+0	1.635813E+0	1.625423E+0	1.553287E+0	1.693314E+0	1.836564E+0	1.802799E+0	1.633395E+0	1.667362E+0	1.701393E+0	1.584146E+0	1.818054E+0	1.723929E+0	1.649706E+0	1.476185E+0	1.612822E+0	1.828692E+0	1.806208E+0	1.489226E+0	1.526619E+0	1.605009E+0	1.827659E+0	1.717339E+0	1.539463E+0	1.493579E+0	1.559457E+0	1.694162E+0	1.447316E+0	1.716153E+0	1.597553E+0	1.447097E+0	1.600643E+0	1.812846E+0	1.620520E+0	1.407602E+0	1.533386E+0	1.407259E+0	1.810303E+0	1.610612E+0	1.671008E+0	1.456725E+0	1.688500E+0	1.578640E+0	1.772754E+0	1.584468E+0	1.688934E+0	1.490622E+0	1.562771E+0	1.780043E+0	1.744889E+0	1.542933E+0	1.501085E+0	1.701087E+0
5.392930E+2	2.046543E+0	2.110926E+0	2.032264E+0	1.908670E+0	2.039413E+0	2.088668E+0	2.112124E+0	1.691325E+0	1.995920E+0	1.786353E+0	2.032810E+0	1.721320E+0	1.865926E+0	1.752682E+0	1.840529E+0	1.858466E+0	2.064778E+0	1.857757E+0	1.845489E+0	1.801865E+0	2.130158E+0	2.102507E+0	1.901013E+0	1.725319E+0	1.986911E+0	1.769839E+0	2.080274E+0	1.714650E+0	1.990591E+0	1.812963E+0	1.847714E+0	2.012196E+0	2.015833E+0	1.862447E+0	1.839816E+0	1.856050E+0	2.090885E+0	1.966207E+0	1.847023E+0	1.702353E+0	1.922469E+0	1.980411E+0	1.964134E+0	1.835567E+0	2.020933E+0	2.057935E+0	1.859196E+0	2.059163E+0	2.026464E+0	2.006811E+0	1.770223E+0	1.953034E+0	2.061714E+0	2.051615E+0	1.903100E+0	1.704710E+0	1.713781E+0	1.779544E+0	1.910126E+0	1.717338E+0	1.726594E+0	1.762489E+0	1.757830E+0	1.948255E+0	1.839252E+0	1.812736E+0	1.817350E+0	1.782198E+0	1.916003E+0	2.079780E+0	1.843377E+0	1.799951E+0	1.831270E+0	1.707120E+0	2.011401E+0	1.725964E+0	1.833481E+0	1.701371E+0	1.664330E+0	1.889051E+0	1.919498E+0	1.818299E+0	1.767547E+0	1.843127E+0	2.068950E+0	1.896032E+0	1.830659E+0	1.721529E+0	1.801991E+0	1.920102E+0	1.999348E+0	1.654242E+0	1.690052E+0	1.763804E+0	1.632264E+0	1.605447E+0	1.780895E+0	1.758420E+0	1.708131E+0	1.747116E+0	2.021913E+0	1.858663E+0	1.903407E+0	1.779610E+0	1.716553E+0	1.965656E+0	1.947343E+0	1.838301E+0	1.710751E+0	1.755802E+0	1.762897E+0	1.928528E+0	1.843078E+0	1.807791E+0	1.739345E+0	1.825851E+0	2.042590E+0	1.857144E+0	1.872281E+0	1.734076E+0	1.833039E+0	2.029716E+0	2.015700E+0	1.759717E+0	1.837336E+0	1.819328E+0	1.805844E+0	1.929237E+0	1.927690E+0	1.768022E+0	1.785884E+0	1.826995E+0	2.042499E+0	1.893140E+0	1.923790E+0	1.725540E+0	1.821840E+0	1.939559E+0	2.046997E+0	1.746295E+0	1.709274E+0	1.719818E+0	1.841215E+0	1.623053E+0	1.904723E+0	1.712837E+0	1.775058E+0	1.733655E+0	1.986024E+0	1.847192E+0	1.844790E+0	1.737190E+0	1.507334E+0	2.000749E+0	1.839539E+0	1.857158E+0	1.606622E+0	1.806438E+0	1.821128E+0	1.912388E+0	1.725164E+0	1.865944E+0	1.631341E+0	1.672001E+0	1.965960E+0	1.980006E+0	1.656549E+0	1.601687E+0	1.658568E+0
5.395210E+2	2.209079E+0	2.249501E+0	2.204791E+0	2.000904E+0	2.166735E+0	2.254543E+0	2.284596E+0	1.845931E+0	2.187712E+0	1.944154E+0	2.201715E+0	1.887371E+0	1.936536E+0	1.911598E+0	1.956045E+0	2.001814E+0	2.117471E+0	2.041008E+0	1.934189E+0	1.899720E+0	2.251645E+0	2.206370E+0	2.077113E+0	1.876943E+0	2.146332E+0	1.841024E+0	2.184258E+0	1.826203E+0	2.168493E+0	1.905970E+0	2.022362E+0	2.113892E+0	2.095801E+0	2.052973E+0	1.965411E+0	1.920039E+0	2.256039E+0	2.163133E+0	2.064864E+0	1.844617E+0	2.112969E+0	2.198244E+0	2.055496E+0	1.986770E+0	2.225547E+0	2.202229E+0	1.936368E+0	2.153148E+0	2.115060E+0	2.255691E+0	1.906809E+0	2.089312E+0	2.273517E+0	2.217802E+0	1.974435E+0	1.895309E+0	1.878498E+0	1.877220E+0	2.087686E+0	1.764665E+0	1.908891E+0	1.967205E+0	1.858777E+0	2.134005E+0	1.995575E+0	2.059071E+0	1.903953E+0	1.907665E+0	2.195348E+0	2.154980E+0	2.083715E+0	1.904854E+0	1.949124E+0	1.882739E+0	2.118900E+0	1.905885E+0	1.866575E+0	1.847648E+0	1.774573E+0	2.102687E+0	2.022902E+0	2.064742E+0	1.850057E+0	1.985076E+0	2.283297E+0	2.155763E+0	1.962433E+0	1.832069E+0	1.972243E+0	1.976357E+0	2.113640E+0	1.887176E+0	1.832873E+0	1.863848E+0	1.773821E+0	1.773896E+0	2.027745E+0	1.981411E+0	1.826505E+0	1.937151E+0	2.205427E+0	2.114489E+0	1.976661E+0	1.892126E+0	1.884766E+0	2.040358E+0	2.099086E+0	1.956236E+0	1.922794E+0	1.834727E+0	1.842509E+0	2.092694E+0	2.059916E+0	1.910834E+0	1.868095E+0	1.945548E+0	2.105316E+0	1.981065E+0	2.037258E+0	1.822684E+0	2.015205E+0	2.178290E+0	2.093576E+0	1.896155E+0	1.938915E+0	1.990164E+0	1.956788E+0	2.035818E+0	2.075684E+0	2.014918E+0	1.933799E+0	1.883351E+0	2.214110E+0	2.058586E+0	1.980661E+0	1.862769E+0	1.910434E+0	2.070624E+0	2.125551E+0	1.847953E+0	1.874788E+0	1.841364E+0	1.965985E+0	1.715165E+0	2.003892E+0	1.874238E+0	1.965863E+0	1.873426E+0	2.064456E+0	2.033112E+0	2.043231E+0	1.872379E+0	1.661397E+0	2.151454E+0	2.078152E+0	1.981766E+0	1.653463E+0	1.974726E+0	1.898378E+0	2.163097E+0	1.867718E+0	1.998386E+0	2.000506E+0	1.825629E+0	2.050406E+0	2.081910E+0	1.951809E+0	1.693509E+0	1.932704E+0
5.397650E+2	2.204621E+0	2.295695E+0	2.278431E+0	2.143128E+0	2.203516E+0	2.217082E+0	2.163362E+0	1.913807E+0	2.145798E+0	1.887968E+0	2.285171E+0	1.942498E+0	2.037172E+0	1.868524E+0	1.939071E+0	1.976395E+0	2.184725E+0	2.001574E+0	1.967953E+0	1.935053E+0	2.208358E+0	2.205103E+0	2.043299E+0	1.898883E+0	2.132628E+0	1.877731E+0	2.228332E+0	1.863180E+0	2.209913E+0	1.925049E+0	2.004256E+0	2.117603E+0	2.218560E+0	2.065633E+0	1.999222E+0	1.986139E+0	2.271236E+0	2.195220E+0	2.026866E+0	1.819707E+0	2.028684E+0	2.157882E+0	2.105446E+0	1.976691E+0	2.206637E+0	2.310961E+0	1.942608E+0	2.159266E+0	2.209520E+0	2.194288E+0	2.015626E+0	2.087906E+0	2.179847E+0	2.248753E+0	1.991657E+0	1.835550E+0	1.880892E+0	1.846252E+0	2.159510E+0	1.858671E+0	1.882067E+0	1.896795E+0	1.881983E+0	2.097571E+0	2.048387E+0	1.991035E+0	1.942790E+0	1.975332E+0	2.213205E+0	2.100738E+0	2.066837E+0	2.015250E+0	1.930652E+0	1.893327E+0	2.148577E+0	1.907239E+0	1.951481E+0	1.899844E+0	1.897511E+0	2.050242E+0	2.102013E+0	1.982989E+0	1.837197E+0	2.012675E+0	2.169820E+0	2.124651E+0	1.963028E+0	1.809330E+0	1.950654E+0	2.000564E+0	2.122131E+0	1.864796E+0	1.873591E+0	2.000595E+0	1.777646E+0	1.765811E+0	1.981505E+0	1.980857E+0	1.877151E+0	1.880073E+0	2.170301E+0	2.124793E+0	1.966778E+0	1.907718E+0	1.870477E+0	2.098734E+0	2.155840E+0	1.936818E+0	1.917343E+0	1.879155E+0	1.886355E+0	2.017645E+0	2.058555E+0	1.923198E+0	1.862570E+0	1.949823E+0	2.217376E+0	1.977364E+0	2.079718E+0	1.809821E+0	1.981905E+0	2.139378E+0	2.142561E+0	1.953904E+0	1.976100E+0	2.049447E+0	1.939692E+0	2.159275E+0	2.016340E+0	2.010091E+0	1.982913E+0	1.902376E+0	2.170500E+0	2.015825E+0	2.022077E+0	1.835698E+0	1.982302E+0	2.038431E+0	2.163820E+0	1.920873E+0	1.881956E+0	1.891002E+0	1.921427E+0	1.794865E+0	2.137983E+0	1.841723E+0	1.986590E+0	1.853892E+0	2.060570E+0	2.022925E+0	2.074855E+0	1.862873E+0	1.637037E+0	2.179195E+0	2.090604E+0	2.009115E+0	1.723410E+0	2.037009E+0	1.954804E+0	2.155165E+0	1.857180E+0	1.990853E+0	1.996973E+0	1.794625E+0	2.060226E+0	2.093571E+0	1.982667E+0	1.669558E+0	1.861093E+0
5.400190E+2	2.179392E+0	2.127057E+0	2.232841E+0	2.105814E+0	2.146928E+0	2.227782E+0	2.201483E+0	1.860388E+0	2.107060E+0	1.849713E+0	2.114927E+0	1.907296E+0	1.987132E+0	1.860373E+0	1.952213E+0	1.979927E+0	2.115394E+0	1.967940E+0	1.929038E+0	1.908549E+0	2.219529E+0	2.136072E+0	2.014581E+0	1.858881E+0	2.114590E+0	1.894412E+0	2.163600E+0	1.815110E+0	2.078863E+0	1.931607E+0	1.970376E+0	2.073804E+0	2.176469E+0	1.999915E+0	1.979295E+0	1.933400E+0	2.230935E+0	2.107763E+0	2.014835E+0	1.826264E+0	2.093784E+0	2.120081E+0	2.087699E+0	1.877149E+0	2.120873E+0	2.146833E+0	1.967010E+0	2.199756E+0	2.146546E+0	2.180569E+0	1.877336E+0	2.002911E+0	2.295884E+0	2.145137E+0	1.952299E+0	1.848760E+0	1.883886E+0	1.821833E+0	2.065074E+0	1.755712E+0	1.883895E+0	1.907446E+0	1.852974E+0	2.076139E+0	1.949804E+0	2.007457E+0	1.899225E+0	1.984491E+0	2.110328E+0	2.180256E+0	2.042396E+0	1.926200E+0	1.887968E+0	1.816102E+0	2.094497E+0	1.894387E+0	1.873439E+0	1.785144E+0	1.870958E+0	2.073378E+0	2.009023E+0	1.895314E+0	1.933103E+0	1.978503E+0	2.218856E+0	2.153057E+0	1.960660E+0	1.798596E+0	1.875396E+0	1.928609E+0	2.073799E+0	1.828421E+0	1.816460E+0	1.809981E+0	1.783384E+0	1.726055E+0	2.004979E+0	1.947492E+0	1.850976E+0	1.894691E+0	2.120841E+0	2.020527E+0	2.031313E+0	1.816890E+0	1.851646E+0	2.057932E+0	2.030383E+0	1.964863E+0	1.841006E+0	1.868634E+0	1.914045E+0	2.029371E+0	2.034086E+0	1.887871E+0	1.831071E+0	1.911347E+0	2.152536E+0	1.963802E+0	1.989341E+0	1.767657E+0	1.993657E+0	2.140086E+0	2.166427E+0	1.929358E+0	1.984063E+0	1.974227E+0	1.877778E+0	2.069562E+0	2.115720E+0	1.879700E+0	1.899134E+0	1.883354E+0	2.159954E+0	2.108360E+0	1.988079E+0	1.787860E+0	1.910433E+0	2.041498E+0	2.188662E+0	1.887219E+0	1.838298E+0	1.793633E+0	1.993998E+0	1.666820E+0	2.057665E+0	1.847044E+0	1.978054E+0	1.876436E+0	2.096292E+0	1.963073E+0	2.061214E+0	1.822109E+0	1.581734E+0	2.134213E+0	2.018674E+0	1.958210E+0	1.711545E+0	2.008518E+0	1.861433E+0	2.092486E+0	1.879497E+0	1.983320E+0	1.989906E+0	1.808717E+0	2.125037E+0	2.045076E+0	1.935674E+0	1.700695E+0	1.895780E+0
5.402790E+2	2.041347E+0	2.121191E+0	2.166918E+0	1.943874E+0	2.067706E+0	2.079974E+0	2.143368E+0	1.750405E+0	1.993374E+0	1.810861E+0	2.101575E+0	1.775782E+0	1.909849E+0	1.724158E+0	1.899107E+0	1.882480E+0	2.074485E+0	1.921548E+0	1.874099E+0	1.780798E+0	2.088967E+0	2.078442E+0	1.905481E+0	1.669187E+0	2.030194E+0	1.724794E+0	2.011414E+0	1.715884E+0	2.037443E+0	1.792690E+0	1.837200E+0	1.972853E+0	2.017936E+0	1.885965E+0	1.810230E+0	1.825818E+0	2.093526E+0	2.031639E+0	1.902752E+0	1.756111E+0	2.021146E+0	1.916349E+0	1.949012E+0	1.855729E+0	2.061452E+0	2.091441E+0	1.789398E+0	2.128697E+0	2.051364E+0	2.018570E+0	1.826332E+0	1.953033E+0	2.078491E+0	2.079873E+0	1.896339E+0	1.734905E+0	1.743133E+0	1.758106E+0	2.035818E+0	1.726292E+0	1.789999E+0	1.777280E+0	1.768855E+0	1.946111E+0	1.895586E+0	1.829157E+0	1.836246E+0	1.812509E+0	2.000306E+0	2.036632E+0	1.881202E+0	1.807268E+0	1.791774E+0	1.768773E+0	1.998870E+0	1.785484E+0	1.791027E+0	1.737460E+0	1.742252E+0	1.941494E+0	1.886884E+0	1.895312E+0	1.799157E+0	1.837871E+0	2.017112E+0	2.058363E+0	1.848976E+0	1.710789E+0	1.796441E+0	1.860573E+0	1.999999E+0	1.708103E+0	1.663917E+0	1.808201E+0	1.677536E+0	1.655308E+0	1.812905E+0	1.825153E+0	1.745691E+0	1.772872E+0	1.991093E+0	1.986574E+0	1.877824E+0	1.804006E+0	1.723048E+0	1.897229E+0	1.918665E+0	1.933944E+0	1.758613E+0	1.742359E+0	1.832125E+0	1.905071E+0	1.919209E+0	1.729475E+0	1.736029E+0	1.813029E+0	2.057389E+0	1.944688E+0	1.970538E+0	1.682624E+0	1.906816E+0	2.018393E+0	2.048986E+0	1.813859E+0	1.865883E+0	1.907295E+0	1.784029E+0	1.957606E+0	1.944134E+0	1.935841E+0	1.794553E+0	1.851648E+0	2.027027E+0	2.011619E+0	1.862594E+0	1.680843E+0	1.833614E+0	1.974049E+0	1.989928E+0	1.769434E+0	1.776393E+0	1.652364E+0	1.823391E+0	1.618479E+0	1.922178E+0	1.735895E+0	1.864671E+0	1.860657E+0	1.968937E+0	1.851646E+0	1.881997E+0	1.786105E+0	1.519186E+0	2.052485E+0	1.940518E+0	1.889069E+0	1.604745E+0	1.954850E+0	1.813069E+0	2.035364E+0	1.802640E+0	1.857785E+0	1.800907E+0	1.705123E+0	1.940430E+0	1.951155E+0	1.914639E+0	1.715866E+0	1.828644E+0
5.405080E+2	1.945611E+0	1.987012E+0	1.926362E+0	1.891069E+0	1.963723E+0	1.984331E+0	2.001518E+0	1.719609E+0	1.985756E+0	1.687132E+0	2.022126E+0	1.717337E+0	1.790868E+0	1.705530E+0	1.711870E+0	1.755371E+0	2.002380E+0	1.828181E+0	1.749345E+0	1.770605E+0	2.091760E+0	1.961908E+0	1.837206E+0	1.706607E+0	1.915502E+0	1.654723E+0	1.984552E+0	1.713419E+0	1.969541E+0	1.716977E+0	1.791058E+0	1.883776E+0	1.936565E+0	1.799139E+0	1.702148E+0	1.792063E+0	2.062477E+0	1.955512E+0	1.834357E+0	1.665638E+0	1.925892E+0	1.867652E+0	1.899717E+0	1.796506E+0	1.975014E+0	1.992965E+0	1.730382E+0	1.963649E+0	1.994983E+0	2.020530E+0	1.726579E+0	1.849074E+0	2.001595E+0	1.978949E+0	1.809016E+0	1.638661E+0	1.719775E+0	1.671147E+0	1.873552E+0	1.622696E+0	1.700372E+0	1.705095E+0	1.702140E+0	1.854664E+0	1.899806E+0	1.832091E+0	1.744920E+0	1.818144E+0	1.971016E+0	1.955263E+0	1.848034E+0	1.680405E+0	1.765651E+0	1.732030E+0	1.969194E+0	1.685381E+0	1.736711E+0	1.749056E+0	1.606612E+0	1.841999E+0	1.800138E+0	1.794600E+0	1.726824E+0	1.826698E+0	1.966676E+0	1.969081E+0	1.779250E+0	1.647628E+0	1.752643E+0	1.797120E+0	1.902686E+0	1.726991E+0	1.631096E+0	1.753740E+0	1.629077E+0	1.579844E+0	1.792277E+0	1.771211E+0	1.684228E+0	1.674026E+0	1.916536E+0	1.876850E+0	1.834802E+0	1.644039E+0	1.728893E+0	1.847637E+0	1.916875E+0	1.759194E+0	1.695603E+0	1.725404E+0	1.688480E+0	1.883961E+0	1.811128E+0	1.726531E+0	1.663642E+0	1.725394E+0	1.929117E+0	1.790557E+0	1.837710E+0	1.619030E+0	1.786682E+0	1.985141E+0	1.895120E+0	1.761885E+0	1.852603E+0	1.767690E+0	1.696175E+0	1.961439E+0	1.801858E+0	1.839858E+0	1.785888E+0	1.714974E+0	1.930674E+0	1.917677E+0	1.834159E+0	1.712950E+0	1.719000E+0	1.836855E+0	1.959046E+0	1.718249E+0	1.629119E+0	1.654908E+0	1.841215E+0	1.577320E+0	1.896336E+0	1.673817E+0	1.776889E+0	1.709610E+0	1.921569E+0	1.791160E+0	1.923548E+0	1.680127E+0	1.491535E+0	1.955761E+0	1.928764E+0	1.786498E+0	1.575393E+0	1.771985E+0	1.733806E+0	1.899696E+0	1.693555E+0	1.827653E+0	1.732610E+0	1.690327E+0	1.865802E+0	1.867667E+0	1.847311E+0	1.586516E+0	1.718989E+0
5.407630E+2	1.910728E+0	1.943752E+0	1.892697E+0	1.866423E+0	1.890157E+0	1.851902E+0	1.844046E+0	1.888667E+0	1.819364E+0	1.621380E+0	1.905961E+0	1.943162E+0	1.686337E+0	1.600747E+0	1.683403E+0	1.733480E+0	1.842215E+0	1.671030E+0	1.756210E+0	1.704006E+0	1.933272E+0	1.887179E+0	1.703216E+0	1.700155E+0	1.802968E+0	1.598556E+0	1.788982E+0	1.712804E+0	1.860898E+0	1.608465E+0	1.717457E+0	1.847403E+0	1.803990E+0	1.766580E+0	1.720869E+0	1.726668E+0	1.999715E+0	1.751664E+0	1.772934E+0	1.577129E+0	1.806657E+0	1.856766E+0	1.844505E+0	1.635858E+0	1.809569E+0	1.939626E+0	1.591358E+0	1.965178E+0	1.912971E+0	1.874207E+0	1.612664E+0	1.776720E+0	1.910024E+0	1.917724E+0	1.739525E+0	1.591480E+0	1.563449E+0	1.613377E+0	1.770472E+0	1.539557E+0	1.649159E+0	1.624036E+0	1.611637E+0	1.905389E+0	1.712501E+0	1.681357E+0	1.650968E+0	1.639111E+0	1.818842E+0	1.843694E+0	1.761324E+0	1.619413E+0	1.632506E+0	1.617437E+0	1.833992E+0	1.543336E+0	1.658044E+0	1.622757E+0	1.573138E+0	1.838143E+0	1.773076E+0	1.734768E+0	1.644852E+0	1.698554E+0	1.894526E+0	1.811480E+0	1.757385E+0	1.528244E+0	1.734139E+0	1.755257E+0	1.768800E+0	1.606675E+0	1.576402E+0	1.670275E+0	1.475406E+0	1.523921E+0	1.724697E+0	1.699475E+0	1.618212E+0	1.694213E+0	1.811880E+0	1.817441E+0	1.753988E+0	1.550498E+0	1.642512E+0	1.785491E+0	1.811130E+0	1.721083E+0	1.598669E+0	1.603808E+0	1.661366E+0	1.855038E+0	1.779857E+0	1.667649E+0	1.631038E+0	1.706156E+0	1.836791E+0	1.728907E+0	1.718221E+0	1.579724E+0	1.671767E+0	1.825249E+0	1.851783E+0	1.636999E+0	1.639475E+0	1.741554E+0	1.677897E+0	1.775877E+0	1.794712E+0	1.770439E+0	1.675528E+0	1.621276E+0	1.880739E+0	1.722785E+0	1.730306E+0	1.588309E+0	1.623595E+0	1.818460E+0	1.870420E+0	1.660056E+0	1.593932E+0	1.602091E+0	1.715805E+0	1.544659E+0	1.742692E+0	1.559123E+0	1.761648E+0	1.620181E+0	1.835367E+0	1.688647E+0	1.819366E+0	1.597923E+0	1.417795E+0	1.862039E+0	1.746171E+0	1.690763E+0	1.513562E+0	1.705727E+0	1.695519E+0	1.839395E+0	1.648309E+0	1.734128E+0	1.684921E+0	1.588140E+0	1.794446E+0	1.857229E+0	1.769460E+0	1.594500E+0	1.677590E+0
5.410240E+2	1.789016E+0	1.786111E+0	1.715960E+0	1.731945E+0	1.665927E+0	1.688706E+0	1.740314E+0	1.739717E+0	1.636454E+0	1.516779E+0	1.745732E+0	1.747226E+0	1.536220E+0	1.480832E+0	1.524635E+0	1.677694E+0	1.623811E+0	1.567809E+0	1.570799E+0	1.632656E+0	1.697287E+0	1.721252E+0	1.617079E+0	1.707900E+0	1.644270E+0	1.491221E+0	1.689130E+0	1.767652E+0	1.644291E+0	1.493996E+0	1.601219E+0	1.776882E+0	1.662993E+0	1.626701E+0	1.531269E+0	1.528376E+0	1.859666E+0	1.637157E+0	1.574725E+0	1.525337E+0	1.719628E+0	1.679939E+0	1.621030E+0	1.593014E+0	1.684642E+0	1.782337E+0	1.556179E+0	1.719900E+0	1.679394E+0	1.690651E+0	1.508949E+0	1.626392E+0	1.736670E+0	1.732027E+0	1.590092E+0	1.456237E+0	1.412509E+0	1.415640E+0	1.657419E+0	1.414854E+0	1.508929E+0	1.499199E+0	1.468921E+0	1.627473E+0	1.587868E+0	1.562296E+0	1.491416E+0	1.509415E+0	1.730253E+0	1.684661E+0	1.613518E+0	1.518776E+0	1.563066E+0	1.491016E+0	1.654607E+0	1.440527E+0	1.513199E+0	1.515142E+0	1.434613E+0	1.573599E+0	1.565581E+0	1.553486E+0	1.460545E+0	1.530323E+0	1.718002E+0	1.691083E+0	1.551749E+0	1.442971E+0	1.555253E+0	1.599571E+0	1.627077E+0	1.448585E+0	1.408056E+0	1.442960E+0	1.421205E+0	1.366251E+0	1.582418E+0	1.467589E+0	1.476506E+0	1.449881E+0	1.715101E+0	1.670738E+0	1.556893E+0	1.511860E+0	1.482093E+0	1.605325E+0	1.662370E+0	1.539861E+0	1.454473E+0	1.526641E+0	1.471568E+0	1.647084E+0	1.596332E+0	1.492766E+0	1.468030E+0	1.449671E+0	1.714858E+0	1.515590E+0	1.614504E+0	1.409656E+0	1.589499E+0	1.668179E+0	1.707965E+0	1.503456E+0	1.567107E+0	1.566887E+0	1.493937E+0	1.693064E+0	1.654582E+0	1.584513E+0	1.552452E+0	1.490941E+0	1.756257E+0	1.668102E+0	1.571439E+0	1.442895E+0	1.492873E+0	1.598490E+0	1.742854E+0	1.493189E+0	1.449263E+0	1.456366E+0	1.520370E+0	1.381989E+0	1.575077E+0	1.484629E+0	1.547679E+0	1.484916E+0	1.693253E+0	1.479808E+0	1.594881E+0	1.504854E+0	1.507995E+0	1.642351E+0	1.649339E+0	1.565399E+0	1.331192E+0	1.622904E+0	1.511465E+0	1.706901E+0	1.507613E+0	1.569046E+0	1.519471E+0	1.477498E+0	1.719816E+0	1.583444E+0	1.565372E+0	1.426028E+0	1.471708E+0
5.412640E+2	1.661367E+0	1.694460E+0	1.607954E+0	1.746028E+0	1.718271E+0	1.709441E+0	1.748439E+0	1.708924E+0	1.597079E+0	1.412774E+0	1.646925E+0	1.723315E+0	1.541221E+0	1.420292E+0	1.464412E+0	1.552709E+0	1.666800E+0	1.560846E+0	1.505560E+0	1.604795E+0	1.728704E+0	1.735182E+0	1.601131E+0	1.742094E+0	1.583677E+0	1.422819E+0	1.603739E+0	1.752245E+0	1.604229E+0	1.481478E+0	1.520611E+0	1.715269E+0	1.621604E+0	1.580879E+0	1.497457E+0	1.680965E+0	1.748018E+0	1.609473E+0	1.598153E+0	1.709565E+0	1.617524E+0	1.596651E+0	1.592772E+0	1.695706E+0	1.681265E+0	1.742671E+0	1.466520E+0	1.687044E+0	1.618619E+0	1.710244E+0	1.467575E+0	1.567388E+0	1.691932E+0	1.650616E+0	1.529213E+0	1.627337E+0	1.416105E+0	1.431124E+0	1.616853E+0	1.487760E+0	1.501000E+0	1.405124E+0	1.469503E+0	1.616758E+0	1.536465E+0	1.508923E+0	1.498236E+0	1.480514E+0	1.661664E+0	1.684043E+0	1.622829E+0	1.467543E+0	1.460502E+0	1.414413E+0	1.668457E+0	1.435790E+0	1.432661E+0	1.476481E+0	1.424226E+0	1.616789E+0	1.531575E+0	1.537493E+0	1.423575E+0	1.494840E+0	1.671068E+0	1.594358E+0	1.493836E+0	1.396230E+0	1.504672E+0	1.475939E+0	1.586584E+0	1.433198E+0	1.417780E+0	1.463084E+0	1.347876E+0	1.294831E+0	1.555388E+0	1.487051E+0	1.429270E+0	1.514617E+0	1.657754E+0	1.599203E+0	1.544103E+0	1.392563E+0	1.435333E+0	1.582729E+0	1.639670E+0	1.475139E+0	1.362992E+0	1.484552E+0	1.451377E+0	1.561873E+0	1.537873E+0	1.486877E+0	1.449794E+0	1.468907E+0	1.594341E+0	1.618549E+0	1.539297E+0	1.426092E+0	1.518983E+0	1.671721E+0	1.620671E+0	1.525111E+0	1.500713E+0	1.578360E+0	1.404312E+0	1.639390E+0	1.593812E+0	1.555534E+0	1.498143E+0	1.519828E+0	1.721793E+0	1.648470E+0	1.563404E+0	1.432196E+0	1.461280E+0	1.625312E+0	1.688468E+0	1.427984E+0	1.402998E+0	1.434091E+0	1.505727E+0	1.303595E+0	1.574379E+0	1.453884E+0	1.575112E+0	1.448094E+0	1.629576E+0	1.558122E+0	1.596120E+0	1.458658E+0	1.536965E+0	1.769067E+0	1.607154E+0	1.531964E+0	1.373659E+0	1.544722E+0	1.480568E+0	1.701352E+0	1.438818E+0	1.492467E+0	1.539489E+0	1.407028E+0	1.692323E+0	1.650970E+0	1.585711E+0	1.340595E+0	1.506394E+0
5.415190E+2	1.572307E+0	1.649001E+0	1.560265E+0	1.617886E+0	1.573264E+0	1.555606E+0	1.618460E+0	1.615281E+0	1.458629E+0	1.375715E+0	1.565473E+0	1.623684E+0	1.469501E+0	1.342869E+0	1.350539E+0	1.444668E+0	1.494849E+0	1.418193E+0	1.363065E+0	1.513738E+0	1.563237E+0	1.600288E+0	1.391850E+0	1.596276E+0	1.547610E+0	1.312147E+0	1.569307E+0	1.603099E+0	1.466388E+0	1.341964E+0	1.508341E+0	1.511136E+0	1.558472E+0	1.457278E+0	1.382128E+0	1.560019E+0	1.668744E+0	1.577385E+0	1.432239E+0	1.628264E+0	1.520216E+0	1.514000E+0	1.473146E+0	1.579155E+0	1.521899E+0	1.633940E+0	1.377999E+0	1.586182E+0	1.589331E+0	1.598546E+0	1.363858E+0	1.607425E+0	1.566806E+0	1.608901E+0	1.426512E+0	1.570094E+0	1.343629E+0	1.330470E+0	1.554344E+0	1.533163E+0	1.370525E+0	1.380862E+0	1.323884E+0	1.533168E+0	1.485766E+0	1.464349E+0	1.345505E+0	1.473467E+0	1.525207E+0	1.617472E+0	1.446503E+0	1.580377E+0	1.383417E+0	1.356494E+0	1.539195E+0	1.481783E+0	1.413307E+0	1.329558E+0	1.281662E+0	1.538894E+0	1.517001E+0	1.509056E+0	1.371065E+0	1.419921E+0	1.588411E+0	1.543626E+0	1.395156E+0	1.321062E+0	1.428181E+0	1.406599E+0	1.491228E+0	1.333168E+0	1.273138E+0	1.366598E+0	1.244580E+0	1.288765E+0	1.422358E+0	1.397521E+0	1.323415E+0	1.422035E+0	1.533025E+0	1.479778E+0	1.474919E+0	1.297665E+0	1.390520E+0	1.459062E+0	1.516598E+0	1.429114E+0	1.350874E+0	1.319109E+0	1.379842E+0	1.524347E+0	1.478734E+0	1.387956E+0	1.334858E+0	1.359900E+0	1.517521E+0	1.438524E+0	1.459233E+0	1.321051E+0	1.441938E+0	1.533758E+0	1.577965E+0	1.394451E+0	1.463532E+0	1.531192E+0	1.390752E+0	1.500603E+0	1.477274E+0	1.419712E+0	1.435160E+0	1.393718E+0	1.640910E+0	1.506860E+0	1.460171E+0	1.335252E+0	1.351625E+0	1.497316E+0	1.580375E+0	1.426584E+0	1.345002E+0	1.322089E+0	1.412788E+0	1.238919E+0	1.401176E+0	1.320859E+0	1.412956E+0	1.442081E+0	1.540270E+0	1.457520E+0	1.431167E+0	1.426048E+0	1.373685E+0	1.601864E+0	1.468134E+0	1.430912E+0	1.248752E+0	1.455939E+0	1.399962E+0	1.514112E+0	1.369398E+0	1.465478E+0	1.452351E+0	1.325280E+0	1.531280E+0	1.511617E+0	1.452460E+0	1.325424E+0	1.360934E+0
5.417650E+2	1.337044E+0	1.466427E+0	1.403166E+0	1.358077E+0	1.369545E+0	1.415152E+0	1.379127E+0	1.387143E+0	1.297949E+0	1.127657E+0	1.364521E+0	1.441027E+0	1.261001E+0	1.162993E+0	1.239949E+0	1.248361E+0	1.413034E+0	1.284813E+0	1.224574E+0	1.294243E+0	1.431280E+0	1.381164E+0	1.305714E+0	1.418194E+0	1.354287E+0	1.135297E+0	1.419184E+0	1.370136E+0	1.393732E+0	1.227494E+0	1.285216E+0	1.442840E+0	1.351538E+0	1.294488E+0	1.261365E+0	1.402509E+0	1.382691E+0	1.354664E+0	1.278359E+0	1.436828E+0	1.340676E+0	1.387788E+0	1.371268E+0	1.436143E+0	1.334846E+0	1.433569E+0	1.202092E+0	1.417316E+0	1.401150E+0	1.379060E+0	1.184196E+0	1.438838E+0	1.344518E+0	1.392927E+0	1.251866E+0	1.451205E+0	1.163343E+0	1.194674E+0	1.336881E+0	1.346428E+0	1.202856E+0	1.190940E+0	1.221199E+0	1.375280E+0	1.278744E+0	1.282529E+0	1.253129E+0	1.372670E+0	1.364461E+0	1.409737E+0	1.313243E+0	1.437657E+0	1.273207E+0	1.241905E+0	1.332108E+0	1.412795E+0	1.217268E+0	1.227103E+0	1.165073E+0	1.322939E+0	1.316446E+0	1.277420E+0	1.199081E+0	1.344347E+0	1.408387E+0	1.340709E+0	1.273427E+0	1.324219E+0	1.256082E+0	1.273808E+0	1.371057E+0	1.386331E+0	1.180154E+0	1.192559E+0	1.127892E+0	1.166137E+0	1.273679E+0	1.209007E+0	1.191384E+0	1.197892E+0	1.305069E+0	1.298520E+0	1.302240E+0	1.180400E+0	1.185285E+0	1.309031E+0	1.357686E+0	1.283851E+0	1.203655E+0	1.223233E+0	1.221197E+0	1.324213E+0	1.324433E+0	1.227203E+0	1.156378E+0	1.205292E+0	1.404050E+0	1.297341E+0	1.283942E+0	1.171702E+0	1.266298E+0	1.358297E+0	1.381392E+0	1.251522E+0	1.302192E+0	1.291503E+0	1.226247E+0	1.455361E+0	1.328566E+0	1.250691E+0	1.224266E+0	1.237318E+0	1.433437E+0	1.337908E+0	1.305636E+0	1.215647E+0	1.227719E+0	1.365487E+0	1.366200E+0	1.225361E+0	1.206852E+0	1.241271E+0	1.251730E+0	1.110220E+0	1.352989E+0	1.187837E+0	1.309937E+0	1.285775E+0	1.450965E+0	1.254410E+0	1.362952E+0	1.219528E+0	1.242004E+0	1.365681E+0	1.373383E+0	1.242483E+0	1.153194E+0	1.335351E+0	1.239420E+0	1.299898E+0	1.220649E+0	1.297885E+0	1.255111E+0	1.197725E+0	1.311981E+0	1.335439E+0	1.332531E+0	1.113836E+0	1.255755E+0
5.420160E+2	1.228690E+0	1.246465E+0	1.180142E+0	1.227117E+0	1.182802E+0	1.214504E+0	1.271648E+0	1.201113E+0	1.157595E+0	1.053540E+0	1.225656E+0	1.256381E+0	1.162033E+0	1.047152E+0	1.065304E+0	1.069000E+0	1.223059E+0	1.123022E+0	1.092381E+0	1.182799E+0	1.199480E+0	1.233603E+0	1.208094E+0	1.246565E+0	1.176834E+0	1.006832E+0	1.188490E+0	1.260432E+0	1.183238E+0	1.031342E+0	1.065004E+0	1.256522E+0	1.148812E+0	1.130491E+0	1.091090E+0	1.223906E+0	1.278313E+0	1.198005E+0	1.157409E+0	1.192939E+0	1.179638E+0	1.173805E+0	1.162253E+0	1.226981E+0	1.180881E+0	1.220204E+0	1.054556E+0	1.247681E+0	1.201988E+0	1.226202E+0	1.044208E+0	1.263924E+0	1.200519E+0	1.164840E+0	1.114118E+0	1.251168E+0	1.059124E+0	1.070195E+0	1.152670E+0	1.210214E+0	1.037627E+0	1.084440E+0	1.059339E+0	1.235253E+0	1.146364E+0	1.118894E+0	1.097774E+0	1.288792E+0	1.189426E+0	1.239609E+0	1.128190E+0	1.247974E+0	1.173189E+0	1.053203E+0	1.173169E+0	1.232195E+0	1.048697E+0	1.033785E+0	1.019047E+0	1.149404E+0	1.145038E+0	1.153605E+0	1.073171E+0	1.191889E+0	1.251477E+0	1.226398E+0	1.158195E+0	1.214943E+0	1.075344E+0	1.088683E+0	1.182962E+0	1.252724E+0	1.040979E+0	1.060551E+0	1.002277E+0	1.034074E+0	1.173374E+0	1.100573E+0	1.055935E+0	1.244532E+0	1.244854E+0	1.160907E+0	1.144104E+0	1.206836E+0	1.051494E+0	1.157118E+0	1.213707E+0	1.306145E+0	1.051584E+0	1.088191E+0	1.060244E+0	1.167076E+0	1.183045E+0	1.130635E+0	1.025970E+0	1.151145E+0	1.206706E+0	1.093889E+0	1.127460E+0	1.203859E+0	1.110905E+0	1.205478E+0	1.189217E+0	1.112200E+0	1.139524E+0	1.146159E+0	1.094760E+0	1.149414E+0	1.196303E+0	1.128751E+0	1.105241E+0	1.087258E+0	1.242138E+0	1.189284E+0	1.122660E+0	1.085342E+0	1.073458E+0	1.123289E+0	1.297045E+0	1.107571E+0	1.053063E+0	1.057364E+0	1.108493E+0	9.834812E-1	1.163724E+0	1.058953E+0	1.147784E+0	1.026516E+0	1.190815E+0	1.162090E+0	1.144046E+0	1.025233E+0	1.064240E+0	1.261461E+0	1.210849E+0	1.183219E+0	1.026409E+0	1.140558E+0	1.121198E+0	1.202312E+0	1.097309E+0	1.166697E+0	1.135000E+0	1.047619E+0	1.179089E+0	1.199773E+0	1.210499E+0	1.020418E+0	1.065537E+0
5.422890E+2	1.043893E+0	1.085891E+0	1.020238E+0	1.111648E+0	1.000303E+0	1.044620E+0	1.074808E+0	1.031424E+0	9.657959E-1	8.855777E-1	1.036052E+0	1.056457E+0	9.902303E-1	8.859042E-1	9.470510E-1	9.447191E-1	1.013668E+0	9.496311E-1	9.235612E-1	1.007475E+0	1.015859E+0	1.037275E+0	1.002644E+0	1.080099E+0	1.020301E+0	8.839275E-1	9.757005E-1	1.044110E+0	1.046077E+0	9.508555E-1	9.639517E-1	1.067975E+0	1.084979E+0	1.014126E+0	9.081342E-1	1.050929E+0	1.133635E+0	1.025616E+0	9.566671E-1	1.056570E+0	9.863928E-1	1.018763E+0	1.063004E+0	1.074520E+0	1.012058E+0	1.090953E+0	9.183690E-1	1.103264E+0	1.037971E+0	1.028929E+0	9.053518E-1	1.068640E+0	1.039744E+0	1.066609E+0	9.868225E-1	9.850829E-1	8.944124E-1	8.849656E-1	9.870799E-1	1.077837E+0	8.730079E-1	9.045727E-1	9.137245E-1	1.050928E+0	9.759586E-1	9.470469E-1	9.445159E-1	9.892264E-1	1.045111E+0	1.040507E+0	1.001330E+0	1.088175E+0	9.234622E-1	9.024911E-1	1.032692E+0	1.084066E+0	9.132179E-1	8.675322E-1	9.116921E-1	9.990084E-1	9.507285E-1	9.450747E-1	9.151154E-1	1.045344E+0	1.088262E+0	1.028892E+0	9.531489E-1	1.060188E+0	9.673953E-1	1.010185E+0	9.596005E-1	1.090436E+0	8.860047E-1	9.599157E-1	8.741115E-1	8.972951E-1	9.016263E-1	9.320784E-1	9.136596E-1	1.031524E+0	1.058474E+0	1.029358E+0	9.487541E-1	1.104483E+0	9.190016E-1	1.038472E+0	1.038064E+0	1.106945E+0	9.055742E-1	9.420412E-1	8.600632E-1	1.048247E+0	9.152264E-1	9.316118E-1	9.281652E-1	1.025751E+0	1.032622E+0	9.514708E-1	9.339749E-1	1.062372E+0	9.437551E-1	1.039216E+0	1.030953E+0	1.001031E+0	9.403394E-1	9.644843E-1	8.990059E-1	1.030562E+0	9.882545E-1	9.880993E-1	9.532798E-1	1.006944E+0	1.040289E+0	1.050476E+0	9.396855E-1	1.014209E+0	9.204354E-1	1.040512E+0	1.025129E+0	9.750597E-1	9.018807E-1	9.052728E-1	9.608039E-1	8.410641E-1	9.625867E-1	9.578543E-1	9.618569E-1	9.370908E-1	9.601735E-1	9.717120E-1	9.865346E-1	9.280865E-1	9.733820E-1	1.065766E+0	1.005434E+0	9.636379E-1	8.584050E-1	1.012021E+0	9.458790E-1	1.103139E+0	9.473175E-1	9.495158E-1	9.601314E-1	9.151316E-1	1.040962E+0	1.017451E+0	9.986978E-1	8.136197E-1	9.211959E-1
5.425300E+2	9.808102E-1	1.069027E+0	1.001303E+0	1.096158E+0	1.061843E+0	1.018536E+0	1.056686E+0	1.065990E+0	9.759574E-1	8.527028E-1	1.061421E+0	1.036531E+0	9.696586E-1	9.045318E-1	9.087277E-1	9.546051E-1	9.803886E-1	9.235354E-1	8.897974E-1	1.007475E+0	1.022841E+0	1.047407E+0	9.720170E-1	1.083326E+0	1.020301E+0	8.683561E-1	1.036990E+0	1.066297E+0	9.965077E-1	8.840811E-1	9.610316E-1	1.057582E+0	1.059726E+0	9.767446E-1	9.449670E-1	1.057258E+0	1.122404E+0	1.036940E+0	9.826309E-1	1.038213E+0	1.046011E+0	1.001464E+0	1.018967E+0	1.063810E+0	1.077561E+0	1.064967E+0	9.212058E-1	1.010807E+0	1.051151E+0	1.060937E+0	9.025184E-1	1.065128E+0	1.039045E+0	1.002019E+0	9.333219E-1	1.064971E+0	8.464962E-1	8.873478E-1	9.990498E-1	1.009410E+0	8.565462E-1	9.323811E-1	8.910987E-1	1.050928E+0	9.872244E-1	9.370761E-1	9.030505E-1	1.025879E+0	1.037252E+0	1.059000E+0	9.931833E-1	1.053411E+0	9.279215E-1	9.118324E-1	9.805914E-1	1.040101E+0	9.556720E-1	8.958856E-1	8.291561E-1	9.758704E-1	1.004858E+0	9.267097E-1	9.215451E-1	1.030886E+0	1.068648E+0	9.964250E-1	9.295119E-1	1.049449E+0	9.149633E-1	9.558919E-1	9.876842E-1	1.059658E+0	8.878276E-1	9.350531E-1	8.537074E-1	8.999904E-1	9.677846E-1	9.515414E-1	8.590245E-1	1.008552E+0	1.003277E+0	9.966221E-1	9.754986E-1	1.076692E+0	8.917239E-1	9.838584E-1	9.950495E-1	1.031437E+0	8.970919E-1	9.063807E-1	8.762159E-1	1.081863E+0	1.009031E+0	9.198353E-1	9.220873E-1	1.101272E+0	1.048833E+0	1.025454E+0	9.970536E-1	1.020927E+0	9.829309E-1	1.014454E+0	9.618695E-1	1.047231E+0	9.536188E-1	9.644842E-1	9.220013E-1	9.791866E-1	9.660916E-1	9.337703E-1	9.278577E-1	1.043579E+0	1.078971E+0	1.035754E+0	1.000265E+0	1.036871E+0	9.061863E-1	1.012920E+0	1.104354E+0	1.038862E+0	9.012287E-1	9.065454E-1	9.627138E-1	8.724218E-1	1.012172E+0	9.436655E-1	9.472265E-1	1.001717E+0	1.073552E+0	9.245951E-1	1.041106E+0	1.046972E+0	9.937923E-1	1.041774E+0	9.902185E-1	1.020623E+0	8.459141E-1	9.682920E-1	9.727471E-1	9.777851E-1	9.435983E-1	9.739959E-1	9.783835E-1	9.933552E-1	1.035724E+0	1.005174E+0	1.009919E+0	9.445651E-1	9.211960E-1
5.427650E+2	9.793260E-1	9.964387E-1	1.040577E+0	1.038423E+0	1.025061E+0	9.911144E-1	1.084181E+0	1.032680E+0	1.014698E+0	8.837845E-1	9.873151E-1	1.073062E+0	9.301825E-1	8.632012E-1	9.240571E-1	9.334205E-1	9.928685E-1	9.850050E-1	8.617559E-1	9.809726E-1	9.627962E-1	1.056907E+0	9.975390E-1	1.087842E+0	1.027514E+0	9.228568E-1	1.021151E+0	1.061367E+0	1.089534E+0	9.138916E-1	9.645362E-1	1.036055E+0	1.037979E+0	9.532303E-1	9.497976E-1	1.046007E+0	1.023971E+0	9.991911E-1	9.908629E-1	1.086728E+0	1.052178E+0	1.036061E+0	1.063005E+0	1.005219E+0	9.978773E-1	1.060180E+0	9.353922E-1	1.042899E+0	1.023326E+0	1.036767E+0	8.656789E-1	1.076367E+0	1.058618E+0	1.057863E+0	9.388560E-1	1.042326E+0	9.231627E-1	9.040248E-1	9.618088E-1	9.844689E-1	9.065413E-1	9.169975E-1	8.765960E-1	1.073791E+0	9.668043E-1	9.652285E-1	9.004260E-1	1.031518E+0	9.958152E-1	1.028795E+0	9.920194E-1	1.081466E+0	9.011648E-1	8.694839E-1	9.753153E-1	1.036719E+0	9.381911E-1	9.068401E-1	9.151554E-1	9.828119E-1	9.319917E-1	9.172311E-1	8.910063E-1	1.037458E+0	1.040628E+0	1.024833E+0	9.856491E-1	1.038711E+0	9.747974E-1	9.401927E-1	1.009890E+0	1.005096E+0	8.981600E-1	8.604651E-1	8.479681E-1	8.730384E-1	9.051830E-1	9.654431E-1	9.193493E-1	1.021779E+0	1.052023E+0	1.016628E+0	9.772425E-1	1.096350E+0	8.884769E-1	1.044749E+0	1.015959E+0	1.051571E+0	8.976979E-1	8.683813E-1	8.652548E-1	1.010721E+0	9.560110E-1	9.539870E-1	8.950108E-1	1.054962E+0	1.070681E+0	9.471550E-1	9.685469E-1	1.061658E+0	9.300439E-1	1.038508E+0	9.738026E-1	1.038568E+0	9.270608E-1	9.606594E-1	9.178739E-1	1.025194E+0	1.006128E+0	9.905138E-1	9.197688E-1	1.024557E+0	1.061388E+0	9.908861E-1	9.903745E-1	1.048832E+0	9.433578E-1	9.416402E-1	1.066085E+0	1.039564E+0	9.018805E-1	8.658182E-1	9.932703E-1	8.606626E-1	9.954108E-1	9.117395E-1	9.789254E-1	1.047557E+0	1.028511E+0	9.723487E-1	1.019401E+0	1.107434E+0	9.740409E-1	1.068766E+0	1.021342E+0	1.034299E+0	8.265524E-1	9.583531E-1	9.559541E-1	1.066644E+0	9.243849E-1	9.752510E-1	9.689629E-1	1.041276E+0	1.039652E+0	1.001491E+0	9.678391E-1	1.048363E+0	8.574169E-1
5.430170E+2	1.109945E+0	1.141615E+0	1.134556E+0	1.187689E+0	1.158044E+0	1.185744E+0	1.175416E+0	1.152092E+0	1.068681E+0	9.895824E-1	1.104816E+0	1.254390E+0	1.045274E+0	9.534299E-1	1.029173E+0	1.066176E+0	1.150258E+0	1.084750E+0	1.038588E+0	1.086982E+0	1.154100E+0	1.162036E+0	1.127701E+0	1.202692E+0	1.127061E+0	9.873674E-1	1.132022E+0	1.175999E+0	1.187312E+0	1.028362E+0	1.043390E+0	1.163733E+0	1.191601E+0	1.060553E+0	1.011991E+0	1.150778E+0	1.215553E+0	1.203669E+0	1.082052E+0	1.241453E+0	1.143319E+0	1.182775E+0	1.128075E+0	1.199891E+0	1.197087E+0	1.160707E+0	1.013132E+0	1.137649E+0	1.229812E+0	1.158921E+0	1.023237E+0	1.166282E+0	1.134811E+0	1.137255E+0	1.058157E+0	1.190151E+0	9.740741E-1	9.737087E-1	1.114098E+0	1.121962E+0	1.012019E+0	1.009298E+0	1.016411E+0	1.120229E+0	1.098481E+0	1.034437E+0	1.011171E+0	1.166851E+0	1.137273E+0	1.146529E+0	1.053702E+0	1.190641E+0	1.033036E+0	9.896795E-1	1.113152E+0	1.176731E+0	1.026222E+0	1.020897E+0	9.613293E-1	1.150947E+0	1.099930E+0	1.048749E+0	1.006199E+0	1.180719E+0	1.204543E+0	1.133733E+0	1.063058E+0	1.166305E+0	1.012425E+0	1.047472E+0	1.101324E+0	1.197461E+0	1.026394E+0	1.037463E+0	9.761341E-1	9.741071E-1	1.065244E+0	1.042183E+0	1.022926E+0	1.154733E+0	1.179621E+0	1.126959E+0	1.076080E+0	1.210225E+0	1.009928E+0	1.135146E+0	1.139626E+0	1.206184E+0	9.946338E-1	9.864708E-1	1.036593E+0	1.122515E+0	1.133424E+0	1.051733E+0	1.000552E+0	1.194606E+0	1.162303E+0	1.085256E+0	1.078329E+0	1.154553E+0	1.052141E+0	1.153830E+0	1.155303E+0	1.195937E+0	1.006734E+0	1.102177E+0	1.041694E+0	1.196188E+0	1.069043E+0	1.107021E+0	1.035906E+0	1.168981E+0	1.216819E+0	1.094643E+0	1.063317E+0	1.162139E+0	1.065404E+0	1.127121E+0	1.192979E+0	1.107572E+0	1.010054E+0	9.695453E-1	1.066479E+0	9.553899E-1	1.072234E+0	1.071368E+0	1.073414E+0	1.108427E+0	1.127912E+0	1.044297E+0	1.082654E+0	1.176048E+0	1.066215E+0	1.137746E+0	1.100188E+0	1.223488E+0	9.202356E-1	1.060388E+0	1.092314E+0	1.174543E+0	1.024792E+0	1.098278E+0	1.064346E+0	1.204067E+0	1.103806E+0	1.116286E+0	1.068831E+0	1.187294E+0	1.034206E+0
5.432960E+2	1.326654E+0	1.332984E+0	1.304279E+0	1.388351E+0	1.302344E+0	1.328874E+0	1.301018E+0	1.331207E+0	1.222375E+0	1.121681E+0	1.258368E+0	1.356676E+0	1.187608E+0	1.108274E+0	1.215313E+0	1.208817E+0	1.295166E+0	1.193769E+0	1.215992E+0	1.180080E+0	1.304906E+0	1.343797E+0	1.278919E+0	1.389159E+0	1.277102E+0	1.137524E+0	1.361340E+0	1.347332E+0	1.318362E+0	1.128523E+0	1.145027E+0	1.349311E+0	1.323480E+0	1.227561E+0	1.152679E+0	1.295633E+0	1.350322E+0	1.287346E+0	1.197303E+0	1.358152E+0	1.261871E+0	1.262859E+0	1.277934E+0	1.339756E+0	1.241656E+0	1.307054E+0	1.130593E+0	1.344724E+0	1.355021E+0	1.269317E+0	1.163791E+0	1.339088E+0	1.320051E+0	1.314881E+0	1.150399E+0	1.393962E+0	1.090271E+0	1.126775E+0	1.215182E+0	1.329164E+0	1.140666E+0	1.145380E+0	1.096469E+0	1.340987E+0	1.230158E+0	1.205110E+0	1.169677E+0	1.330380E+0	1.310881E+0	1.361658E+0	1.201514E+0	1.372393E+0	1.169366E+0	1.126689E+0	1.257585E+0	1.365445E+0	1.132357E+0	1.124644E+0	1.096965E+0	1.310599E+0	1.224149E+0	1.146496E+0	1.208190E+0	1.324634E+0	1.294905E+0	1.308917E+0	1.204286E+0	1.330538E+0	1.252380E+0	1.194654E+0	1.280275E+0	1.356950E+0	1.109654E+0	1.173616E+0	1.109401E+0	1.101453E+0	1.164126E+0	1.168414E+0	1.134470E+0	1.250796E+0	1.319405E+0	1.296095E+0	1.234801E+0	1.341726E+0	1.096307E+0	1.258810E+0	1.287788E+0	1.318368E+0	1.127919E+0	1.146067E+0	1.169278E+0	1.231182E+0	1.273450E+0	1.141823E+0	1.132617E+0	1.342087E+0	1.313129E+0	1.206711E+0	1.222685E+0	1.308186E+0	1.188601E+0	1.361835E+0	1.279024E+0	1.296999E+0	1.177367E+0	1.208634E+0	1.163157E+0	1.296637E+0	1.284241E+0	1.234389E+0	1.156665E+0	1.290862E+0	1.375063E+0	1.262896E+0	1.235164E+0	1.343435E+0	1.147181E+0	1.235191E+0	1.351428E+0	1.306692E+0	1.094116E+0	1.131180E+0	1.191252E+0	1.021372E+0	1.248929E+0	1.169510E+0	1.181311E+0	1.206871E+0	1.295652E+0	1.214298E+0	1.240785E+0	1.268441E+0	1.169581E+0	1.236718E+0	1.253038E+0	1.401281E+0	1.037652E+0	1.269095E+0	1.180981E+0	1.284824E+0	1.161149E+0	1.188039E+0	1.260997E+0	1.374610E+0	1.220986E+0	1.347101E+0	1.215408E+0	1.366147E+0	1.100223E+0
5.435220E+2	1.377864E+0	1.386509E+0	1.412984E+0	1.455944E+0	1.361762E+0	1.383720E+0	1.437869E+0	1.431138E+0	1.314463E+0	1.202970E+0	1.449308E+0	1.377267E+0	1.348293E+0	1.190935E+0	1.236666E+0	1.269545E+0	1.343702E+0	1.356141E+0	1.221712E+0	1.351326E+0	1.393576E+0	1.407130E+0	1.340171E+0	1.405290E+0	1.346353E+0	1.173115E+0	1.345497E+0	1.426218E+0	1.326512E+0	1.182777E+0	1.253673E+0	1.368609E+0	1.338913E+0	1.355986E+0	1.283101E+0	1.462281E+0	1.442807E+0	1.338937E+0	1.294191E+0	1.362086E+0	1.341361E+0	1.400602E+0	1.406106E+0	1.412834E+0	1.327417E+0	1.440405E+0	1.219115E+0	1.498306E+0	1.433368E+0	1.384287E+0	1.214234E+0	1.430404E+0	1.413022E+0	1.361304E+0	1.253097E+0	1.449317E+0	1.161547E+0	1.198843E+0	1.349518E+0	1.418692E+0	1.183346E+0	1.193305E+0	1.225263E+0	1.354562E+0	1.279450E+0	1.291915E+0	1.238959E+0	1.380425E+0	1.354460E+0	1.424533E+0	1.286473E+0	1.449245E+0	1.229251E+0	1.172153E+0	1.402015E+0	1.400619E+0	1.209775E+0	1.195526E+0	1.178348E+0	1.358419E+0	1.281056E+0	1.264979E+0	1.220512E+0	1.346322E+0	1.446912E+0	1.325828E+0	1.227925E+0	1.428444E+0	1.268417E+0	1.246334E+0	1.364528E+0	1.420604E+0	1.157667E+0	1.220973E+0	1.171891E+0	1.179613E+0	1.295730E+0	1.221798E+0	1.213008E+0	1.367044E+0	1.440552E+0	1.323982E+0	1.274336E+0	1.423068E+0	1.201523E+0	1.331000E+0	1.357086E+0	1.429832E+0	1.167300E+0	1.208034E+0	1.182545E+0	1.302324E+0	1.258497E+0	1.251345E+0	1.211637E+0	1.398373E+0	1.416027E+0	1.303505E+0	1.322764E+0	1.389649E+0	1.280011E+0	1.419849E+0	1.314823E+0	1.452203E+0	1.213223E+0	1.320192E+0	1.217402E+0	1.387884E+0	1.327137E+0	1.263971E+0	1.254312E+0	1.461354E+0	1.451018E+0	1.391187E+0	1.270400E+0	1.421491E+0	1.219046E+0	1.317967E+0	1.453480E+0	1.419571E+0	1.209459E+0	1.142635E+0	1.277192E+0	1.148763E+0	1.357178E+0	1.217990E+0	1.331274E+0	1.303811E+0	1.416020E+0	1.265236E+0	1.343107E+0	1.432164E+0	1.247930E+0	1.404672E+0	1.312519E+0	1.363291E+0	1.128213E+0	1.295598E+0	1.224643E+0	1.462541E+0	1.242342E+0	1.262105E+0	1.313398E+0	1.397160E+0	1.359766E+0	1.376569E+0	1.368300E+0	1.369340E+0	1.205403E+0
5.437910E+2	1.625744E+0	1.628467E+0	1.654243E+0	1.587607E+0	1.657438E+0	1.635201E+0	1.641582E+0	1.622820E+0	1.593904E+0	1.386474E+0	1.648261E+0	1.670178E+0	1.495076E+0	1.387112E+0	1.464961E+0	1.529407E+0	1.632131E+0	1.465746E+0	1.432882E+0	1.549752E+0	1.686812E+0	1.609156E+0	1.546260E+0	1.667896E+0	1.566364E+0	1.369984E+0	1.612690E+0	1.668429E+0	1.611022E+0	1.439742E+0	1.520609E+0	1.669990E+0	1.627917E+0	1.483205E+0	1.487794E+0	1.659164E+0	1.630424E+0	1.564175E+0	1.513298E+0	1.659080E+0	1.620949E+0	1.585759E+0	1.569110E+0	1.647197E+0	1.607659E+0	1.703008E+0	1.412614E+0	1.651128E+0	1.622280E+0	1.591358E+0	1.426768E+0	1.664323E+0	1.675153E+0	1.684928E+0	1.518143E+0	1.641806E+0	1.378369E+0	1.378712E+0	1.513109E+0	1.595194E+0	1.426009E+0	1.435297E+0	1.378998E+0	1.690349E+0	1.480131E+0	1.458484E+0	1.430006E+0	1.662371E+0	1.572362E+0	1.549665E+0	1.537867E+0	1.664544E+0	1.489807E+0	1.410053E+0	1.553703E+0	1.657650E+0	1.419553E+0	1.411398E+0	1.374587E+0	1.648415E+0	1.484387E+0	1.450406E+0	1.368925E+0	1.652555E+0	1.675973E+0	1.585566E+0	1.466064E+0	1.621729E+0	1.413375E+0	1.498831E+0	1.554583E+0	1.732588E+0	1.342421E+0	1.370738E+0	1.340228E+0	1.357493E+0	1.486382E+0	1.447570E+0	1.380323E+0	1.589795E+0	1.593243E+0	1.573136E+0	1.480733E+0	1.685390E+0	1.400909E+0	1.554481E+0	1.602628E+0	1.641259E+0	1.430847E+0	1.353601E+0	1.385035E+0	1.566564E+0	1.601086E+0	1.430942E+0	1.368564E+0	1.627784E+0	1.595046E+0	1.479213E+0	1.508968E+0	1.626175E+0	1.462176E+0	1.585404E+0	1.600576E+0	1.631228E+0	1.472162E+0	1.497405E+0	1.424359E+0	1.603351E+0	1.530179E+0	1.493360E+0	1.380848E+0	1.602961E+0	1.630361E+0	1.574861E+0	1.468826E+0	1.647482E+0	1.426586E+0	1.561702E+0	1.615288E+0	1.589244E+0	1.400389E+0	1.406729E+0	1.497453E+0	1.314045E+0	1.557615E+0	1.454477E+0	1.486109E+0	1.595383E+0	1.566675E+0	1.485535E+0	1.617824E+0	1.589772E+0	1.442156E+0	1.661848E+0	1.582253E+0	1.616302E+0	1.296215E+0	1.526833E+0	1.439594E+0	1.634707E+0	1.422701E+0	1.496862E+0	1.458829E+0	1.654384E+0	1.501168E+0	1.600629E+0	1.555555E+0	1.551385E+0	1.534367E+0
5.440170E+2	1.607189E+0	1.703258E+0	1.675285E+0	1.689701E+0	1.699173E+0	1.664626E+0	1.715943E+0	1.625336E+0	1.761568E+0	1.437879E+0	1.696329E+0	1.801690E+0	1.665212E+0	1.448816E+0	1.522994E+0	1.472205E+0	1.656399E+0	1.538232E+0	1.504416E+0	1.580333E+0	1.672849E+0	1.664890E+0	1.552001E+0	1.655635E+0	1.663747E+0	1.415588E+0	1.644365E+0	1.698011E+0	1.654477E+0	1.434972E+0	1.481477E+0	1.611347E+0	1.683334E+0	1.542291E+0	1.480548E+0	1.675339E+0	1.675351E+0	1.601925E+0	1.571557E+0	1.748246E+0	1.726483E+0	1.644060E+0	1.588824E+0	1.700116E+0	1.641423E+0	1.651718E+0	1.398425E+0	1.645782E+0	1.694771E+0	1.641657E+0	1.468139E+0	1.698044E+0	1.698920E+0	1.671472E+0	1.539665E+0	1.671998E+0	1.599383E+0	1.409088E+0	1.541042E+0	1.620134E+0	1.552827E+0	1.418137E+0	1.383061E+0	1.686772E+0	1.606176E+0	1.473145E+0	1.416883E+0	1.705367E+0	1.639521E+0	1.618705E+0	1.501788E+0	1.624292E+0	1.477705E+0	1.448664E+0	1.619651E+0	1.630593E+0	1.464500E+0	1.455218E+0	1.413834E+0	1.633758E+0	1.568355E+0	1.545192E+0	1.447682E+0	1.584868E+0	1.632544E+0	1.581506E+0	1.470200E+0	1.675419E+0	1.504054E+0	1.549200E+0	1.580705E+0	1.722091E+0	1.359437E+0	1.453023E+0	1.324286E+0	1.440368E+0	1.521241E+0	1.480379E+0	1.395121E+0	1.632954E+0	1.633386E+0	1.581017E+0	1.545263E+0	1.682675E+0	1.445723E+0	1.565152E+0	1.642060E+0	1.670021E+0	1.471441E+0	1.402708E+0	1.427724E+0	1.625978E+0	1.535154E+0	1.458614E+0	1.401167E+0	1.641322E+0	1.655660E+0	1.491545E+0	1.493197E+0	1.664761E+0	1.509839E+0	1.661103E+0	1.613134E+0	1.602353E+0	1.570425E+0	1.533740E+0	1.467991E+0	1.619454E+0	1.553773E+0	1.504829E+0	1.413208E+0	1.650866E+0	1.721794E+0	1.575564E+0	1.541153E+0	1.683363E+0	1.431541E+0	1.541770E+0	1.678400E+0	1.584336E+0	1.439490E+0	1.466546E+0	1.540744E+0	1.344097E+0	1.550635E+0	1.437922E+0	1.533047E+0	1.584865E+0	1.608609E+0	1.602058E+0	1.558292E+0	1.653630E+0	1.497461E+0	1.707583E+0	1.637587E+0	1.602628E+0	1.395519E+0	1.599053E+0	1.444968E+0	1.622013E+0	1.449354E+0	1.492468E+0	1.475315E+0	1.646631E+0	1.550923E+0	1.574235E+0	1.515582E+0	1.604884E+0	1.393382E+0
5.442590E+2	1.767495E+0	1.725985E+0	1.716662E+0	1.762926E+0	1.719684E+0	1.703422E+0	1.797804E+0	1.682525E+0	1.751407E+0	1.452223E+0	1.725703E+0	1.803018E+0	1.751391E+0	1.466277E+0	1.515877E+0	1.628970E+0	1.707012E+0	1.584624E+0	1.538179E+0	1.600039E+0	1.693798E+0	1.656655E+0	1.566039E+0	1.705319E+0	1.720735E+0	1.482325E+0	1.671223E+0	1.681371E+0	1.655156E+0	1.477301E+0	1.564417E+0	1.739025E+0	1.735243E+0	1.519984E+0	1.539120E+0	1.647212E+0	1.755286E+0	1.623315E+0	1.520897E+0	1.744964E+0	1.634654E+0	1.663917E+0	1.644693E+0	1.737918E+0	1.720433E+0	1.729676E+0	1.494894E+0	1.689334E+0	1.635461E+0	1.655374E+0	1.484010E+0	1.759859E+0	1.728979E+0	1.678203E+0	1.512609E+0	1.716658E+0	1.740737E+0	1.476388E+0	1.678035E+0	1.652114E+0	1.700985E+0	1.457191E+0	1.430631E+0	1.688202E+0	1.737146E+0	1.609802E+0	1.538651E+0	1.698318E+0	1.678811E+0	1.688358E+0	1.586166E+0	1.732856E+0	1.733798E+0	1.436831E+0	1.620310E+0	1.687408E+0	1.714860E+0	1.450060E+0	1.412681E+0	1.699316E+0	1.750867E+0	1.557038E+0	1.502871E+0	1.642695E+0	1.779644E+0	1.607209E+0	1.484975E+0	1.666579E+0	1.582394E+0	1.520419E+0	1.614669E+0	1.666133E+0	1.513804E+0	1.538266E+0	1.397613E+0	1.461256E+0	1.668495E+0	1.535430E+0	1.450895E+0	1.695605E+0	1.700049E+0	1.604053E+0	1.569683E+0	1.724025E+0	1.472350E+0	1.639852E+0	1.605616E+0	1.686561E+0	1.481130E+0	1.455903E+0	1.481952E+0	1.707284E+0	1.584095E+0	1.530451E+0	1.478528E+0	1.664124E+0	1.644383E+0	1.476748E+0	1.596916E+0	1.725502E+0	1.534653E+0	1.579036E+0	1.645791E+0	1.679590E+0	1.565114E+0	1.561788E+0	1.527544E+0	1.769745E+0	1.637423E+0	1.563988E+0	1.505077E+0	1.667068E+0	1.738673E+0	1.648476E+0	1.629550E+0	1.705396E+0	1.502167E+0	1.539472E+0	1.735469E+0	1.732972E+0	1.460343E+0	1.411181E+0	1.555383E+0	1.336914E+0	1.594635E+0	1.421957E+0	1.592177E+0	1.567578E+0	1.719662E+0	1.519921E+0	1.619682E+0	1.627814E+0	1.492852E+0	1.748823E+0	1.566346E+0	1.720395E+0	1.377408E+0	1.567253E+0	1.508110E+0	1.736258E+0	1.508853E+0	1.630557E+0	1.591892E+0	1.724150E+0	1.685119E+0	1.598174E+0	1.584312E+0	1.780541E+0	1.507513E+0
5.445180E+2	1.632423E+0	1.664396E+0	1.580604E+0	1.608730E+0	1.658850E+0	1.594401E+0	1.644079E+0	1.649847E+0	1.776809E+0	1.491674E+0	1.678303E+0	1.729957E+0	1.664099E+0	1.440664E+0	1.472080E+0	1.461618E+0	1.652931E+0	1.537073E+0	1.466074E+0	1.553152E+0	1.688212E+0	1.687054E+0	1.507337E+0	1.658861E+0	1.632728E+0	1.435050E+0	1.587210E+0	1.664113E+0	1.687070E+0	1.442126E+0	1.456944E+0	1.693004E+0	1.608976E+0	1.509132E+0	1.465454E+0	1.648623E+0	1.683276E+0	1.588082E+0	1.471504E+0	1.695795E+0	1.621636E+0	1.548601E+0	1.534271E+0	1.680586E+0	1.665733E+0	1.638045E+0	1.434178E+0	1.686281E+0	1.640586E+0	1.618142E+0	1.430169E+0	1.690316E+0	1.641602E+0	1.624379E+0	1.468333E+0	1.729242E+0	1.614359E+0	1.417424E+0	1.555671E+0	1.587522E+0	1.630869E+0	1.445357E+0	1.428310E+0	1.596754E+0	1.644904E+0	1.482532E+0	1.490889E+0	1.607392E+0	1.641661E+0	1.693904E+0	1.526810E+0	1.591358E+0	1.629962E+0	1.411298E+0	1.614377E+0	1.687410E+0	1.659290E+0	1.453281E+0	1.422495E+0	1.685435E+0	1.633588E+0	1.511427E+0	1.480368E+0	1.619037E+0	1.654959E+0	1.636291E+0	1.532246E+0	1.662158E+0	1.640994E+0	1.490981E+0	1.572213E+0	1.654940E+0	1.626843E+0	1.467819E+0	1.300692E+0	1.388488E+0	1.686280E+0	1.460914E+0	1.429269E+0	1.646180E+0	1.625500E+0	1.537975E+0	1.511543E+0	1.734871E+0	1.604842E+0	1.604697E+0	1.584709E+0	1.635506E+0	1.501123E+0	1.387508E+0	1.430032E+0	1.590797E+0	1.625558E+0	1.517495E+0	1.440953E+0	1.617812E+0	1.640155E+0	1.491542E+0	1.526559E+0	1.667621E+0	1.523551E+0	1.649789E+0	1.616903E+0	1.679589E+0	1.467513E+0	1.454696E+0	1.440870E+0	1.629424E+0	1.616690E+0	1.498792E+0	1.447875E+0	1.628324E+0	1.640209E+0	1.602204E+0	1.502207E+0	1.615378E+0	1.431545E+0	1.547135E+0	1.709955E+0	1.584334E+0	1.429065E+0	1.375545E+0	1.462442E+0	1.350631E+0	1.580663E+0	1.400676E+0	1.535487E+0	1.534515E+0	1.595407E+0	1.521192E+0	1.589920E+0	1.608112E+0	1.467176E+0	1.552378E+0	1.590554E+0	1.632256E+0	1.343059E+0	1.514245E+0	1.485271E+0	1.687066E+0	1.440055E+0	1.549585E+0	1.502397E+0	1.586732E+0	1.506409E+0	1.611681E+0	1.556255E+0	1.660773E+0	1.425831E+0
5.447610E+2	1.547819E+0	1.514823E+0	1.574995E+0	1.560854E+0	1.442400E+0	1.520828E+0	1.524728E+0	1.464445E+0	1.577389E+0	1.317735E+0	1.522080E+0	1.556598E+0	1.547337E+0	1.278252E+0	1.346707E+0	1.432661E+0	1.496931E+0	1.432691E+0	1.304121E+0	1.419958E+0	1.505286E+0	1.461595E+0	1.402061E+0	1.595629E+0	1.498556E+0	1.233177E+0	1.485291E+0	1.495246E+0	1.500339E+0	1.336003E+0	1.358227E+0	1.618028E+0	1.498147E+0	1.374675E+0	1.319935E+0	1.483374E+0	1.557756E+0	1.428274E+0	1.398678E+0	1.535825E+0	1.515418E+0	1.469155E+0	1.438968E+0	1.477725E+0	1.540804E+0	1.542300E+0	1.376295E+0	1.566313E+0	1.568096E+0	1.580906E+0	1.299814E+0	1.567387E+0	1.512982E+0	1.441368E+0	1.368092E+0	1.518508E+0	1.544877E+0	1.257807E+0	1.500474E+0	1.521650E+0	1.544901E+0	1.271995E+0	1.286175E+0	1.522454E+0	1.573786E+0	1.433850E+0	1.326611E+0	1.468535E+0	1.459481E+0	1.529325E+0	1.426718E+0	1.515118E+0	1.536310E+0	1.289236E+0	1.506218E+0	1.535899E+0	1.580004E+0	1.272209E+0	1.277622E+0	1.477193E+0	1.511450E+0	1.365098E+0	1.329276E+0	1.553324E+0	1.502953E+0	1.496954E+0	1.376836E+0	1.497924E+0	1.513924E+0	1.437344E+0	1.452696E+0	1.489858E+0	1.570930E+0	1.350615E+0	1.199945E+0	1.299546E+0	1.511282E+0	1.353590E+0	1.306343E+0	1.481206E+0	1.533745E+0	1.414307E+0	1.420847E+0	1.503052E+0	1.514567E+0	1.435838E+0	1.454467E+0	1.595953E+0	1.516271E+0	1.294556E+0	1.342344E+0	1.427407E+0	1.649350E+0	1.316706E+0	1.302810E+0	1.500965E+0	1.527388E+0	1.386738E+0	1.404040E+0	1.491834E+0	1.469357E+0	1.551446E+0	1.524582E+0	1.475303E+0	1.488098E+0	1.367362E+0	1.319407E+0	1.510569E+0	1.450109E+0	1.404019E+0	1.361205E+0	1.588868E+0	1.567064E+0	1.472508E+0	1.468828E+0	1.495145E+0	1.399948E+0	1.424504E+0	1.537406E+0	1.461638E+0	1.318285E+0	1.310636E+0	1.389869E+0	1.272237E+0	1.413747E+0	1.315541E+0	1.370896E+0	1.388727E+0	1.461060E+0	1.394489E+0	1.429927E+0	1.487190E+0	1.328253E+0	1.479647E+0	1.405888E+0	1.526647E+0	1.253748E+0	1.377093E+0	1.359658E+0	1.572025E+0	1.305561E+0	1.403336E+0	1.386998E+0	1.507804E+0	1.449452E+0	1.468648E+0	1.354976E+0	1.511463E+0	1.340792E+0
5.450090E+2	1.469889E+0	1.512623E+0	1.481014E+0	1.523536E+0	1.560532E+0	1.526179E+0	1.529100E+0	1.517237E+0	1.551351E+0	1.295619E+0	1.436623E+0	1.575859E+0	1.487290E+0	1.253805E+0	1.322071E+0	1.342277E+0	1.541302E+0	1.418191E+0	1.355051E+0	1.433551E+0	1.506682E+0	1.472992E+0	1.315925E+0	1.503363E+0	1.498557E+0	1.263762E+0	1.463257E+0	1.481688E+0	1.522067E+0	1.329444E+0	1.341288E+0	1.410181E+0	1.508669E+0	1.360810E+0	1.338654E+0	1.479158E+0	1.585501E+0	1.467913E+0	1.314457E+0	1.538446E+0	1.484584E+0	1.444168E+0	1.465917E+0	1.513636E+0	1.532702E+0	1.557347E+0	1.336010E+0	1.576247E+0	1.508054E+0	1.492069E+0	1.287913E+0	1.549824E+0	1.511585E+0	1.497886E+0	1.351490E+0	1.555625E+0	1.533499E+0	1.269123E+0	1.419343E+0	1.457062E+0	1.479049E+0	1.279689E+0	1.249048E+0	1.421002E+0	1.548435E+0	1.355844E+0	1.308240E+0	1.469239E+0	1.490917E+0	1.497886E+0	1.367363E+0	1.502916E+0	1.461139E+0	1.248131E+0	1.485773E+0	1.476374E+0	1.580627E+0	1.210347E+0	1.249342E+0	1.425519E+0	1.510064E+0	1.290456E+0	1.306772E+0	1.483666E+0	1.487541E+0	1.439461E+0	1.328971E+0	1.509926E+0	1.489248E+0	1.321558E+0	1.404366E+0	1.507344E+0	1.474908E+0	1.336997E+0	1.203773E+0	1.313697E+0	1.493497E+0	1.381396E+0	1.290407E+0	1.471459E+0	1.540909E+0	1.407032E+0	1.365615E+0	1.486781E+0	1.465857E+0	1.383103E+0	1.467612E+0	1.531229E+0	1.495673E+0	1.268833E+0	1.259274E+0	1.483695E+0	1.512041E+0	1.325540E+0	1.270207E+0	1.504529E+0	1.483690E+0	1.380572E+0	1.401612E+0	1.483976E+0	1.492211E+0	1.485647E+0	1.465549E+0	1.458699E+0	1.460874E+0	1.375650E+0	1.265753E+0	1.499070E+0	1.460831E+0	1.403416E+0	1.308046E+0	1.518419E+0	1.451022E+0	1.433249E+0	1.399594E+0	1.484442E+0	1.469951E+0	1.455930E+0	1.501823E+0	1.505809E+0	1.443400E+0	1.268637E+0	1.382230E+0	1.206254E+0	1.519203E+0	1.307263E+0	1.411131E+0	1.433064E+0	1.489017E+0	1.353102E+0	1.398920E+0	1.517761E+0	1.431621E+0	1.536634E+0	1.418338E+0	1.471940E+0	1.378658E+0	1.357220E+0	1.320696E+0	1.495070E+0	1.466089E+0	1.353122E+0	1.343426E+0	1.492298E+0	1.446179E+0	1.399894E+0	1.359885E+0	1.414055E+0	1.358696E+0
5.452640E+2	1.405322E+0	1.374777E+0	1.373011E+0	1.398912E+0	1.451596E+0	1.431875E+0	1.419122E+0	1.377088E+0	1.426240E+0	1.174279E+0	1.401240E+0	1.443685E+0	1.427801E+0	1.164159E+0	1.247616E+0	1.330272E+0	1.422047E+0	1.237262E+0	1.258911E+0	1.368995E+0	1.388689E+0	1.372932E+0	1.307629E+0	1.429808E+0	1.355008E+0	1.140858E+0	1.373735E+0	1.356579E+0	1.374043E+0	1.227494E+0	1.215121E+0	1.374550E+0	1.429401E+0	1.268561E+0	1.237816E+0	1.433451E+0	1.456682E+0	1.354037E+0	1.257461E+0	1.423714E+0	1.342046E+0	1.362805E+0	1.329200E+0	1.401495E+0	1.432761E+0	1.411001E+0	1.223088E+0	1.369937E+0	1.326465E+0	1.442422E+0	1.229536E+0	1.424786E+0	1.450070E+0	1.393598E+0	1.246947E+0	1.425415E+0	1.444853E+0	1.188718E+0	1.322249E+0	1.398867E+0	1.419910E+0	1.211055E+0	1.208437E+0	1.479588E+0	1.419576E+0	1.277838E+0	1.217438E+0	1.337429E+0	1.418045E+0	1.393096E+0	1.265525E+0	1.485842E+0	1.390425E+0	1.171531E+0	1.355192E+0	1.435790E+0	1.426420E+0	1.189081E+0	1.137946E+0	1.356877E+0	1.431647E+0	1.300526E+0	1.200153E+0	1.349606E+0	1.358653E+0	1.336652E+0	1.269289E+0	1.403178E+0	1.406592E+0	1.254183E+0	1.322076E+0	1.381433E+0	1.315680E+0	1.222749E+0	1.155947E+0	1.196456E+0	1.393901E+0	1.267399E+0	1.177155E+0	1.359387E+0	1.371734E+0	1.345804E+0	1.315616E+0	1.402052E+0	1.362592E+0	1.316566E+0	1.320645E+0	1.456444E+0	1.387226E+0	1.254217E+0	1.240235E+0	1.353139E+0	1.383568E+0	1.278430E+0	1.193952E+0	1.423307E+0	1.411094E+0	1.260351E+0	1.214191E+0	1.351061E+0	1.360975E+0	1.374570E+0	1.366948E+0	1.395895E+0	1.381201E+0	1.290868E+0	1.139573E+0	1.405521E+0	1.501582E+0	1.311055E+0	1.255471E+0	1.350746E+0	1.439767E+0	1.337205E+0	1.316144E+0	1.400088E+0	1.443314E+0	1.295740E+0	1.408497E+0	1.387321E+0	1.424502E+0	1.162364E+0	1.306477E+0	1.130471E+0	1.400479E+0	1.170693E+0	1.308718E+0	1.370694E+0	1.393498E+0	1.295797E+0	1.338145E+0	1.326183E+0	1.357224E+0	1.431663E+0	1.328426E+0	1.421035E+0	1.348054E+0	1.252530E+0	1.269648E+0	1.335600E+0	1.383036E+0	1.294118E+0	1.260997E+0	1.367561E+0	1.375477E+0	1.310269E+0	1.369702E+0	1.415650E+0	1.359814E+0
5.455290E+2	1.365246E+0	1.371844E+0	1.390543E+0	1.336249E+0	1.349736E+0	1.321517E+0	1.410999E+0	1.330580E+0	1.414170E+0	1.131840E+0	1.339820E+0	1.388558E+0	1.380539E+0	1.126903E+0	1.172612E+0	1.275195E+0	1.378367E+0	1.265678E+0	1.187951E+0	1.290845E+0	1.320268E+0	1.353299E+0	1.284660E+0	1.402709E+0	1.363666E+0	1.161435E+0	1.314510E+0	1.360276E+0	1.297313E+0	1.160124E+0	1.225051E+0	1.341889E+0	1.378896E+0	1.211886E+0	1.169585E+0	1.371572E+0	1.456019E+0	1.289861E+0	1.246065E+0	1.396834E+0	1.395498E+0	1.285924E+0	1.303569E+0	1.339124E+0	1.265965E+0	1.346717E+0	1.211170E+0	1.356948E+0	1.385043E+0	1.332029E+0	1.133187E+0	1.404415E+0	1.367585E+0	1.376106E+0	1.202055E+0	1.358735E+0	1.373575E+0	1.123203E+0	1.322247E+0	1.308700E+0	1.417470E+0	1.152480E+0	1.134178E+0	1.344560E+0	1.402677E+0	1.231504E+0	1.207993E+0	1.381129E+0	1.343744E+0	1.327139E+0	1.228283E+0	1.346778E+0	1.316529E+0	1.141014E+0	1.367723E+0	1.366800E+0	1.306549E+0	1.178772E+0	1.168536E+0	1.412409E+0	1.333795E+0	1.215217E+0	1.166936E+0	1.368004E+0	1.374763E+0	1.361002E+0	1.219654E+0	1.352012E+0	1.399189E+0	1.222129E+0	1.260685E+0	1.367443E+0	1.332088E+0	1.196701E+0	1.125979E+0	1.123014E+0	1.417376E+0	1.214568E+0	1.166342E+0	1.311357E+0	1.349510E+0	1.282758E+0	1.270266E+0	1.363417E+0	1.380777E+0	1.263204E+0	1.228642E+0	1.342101E+0	1.406006E+0	1.188743E+0	1.164662E+0	1.348448E+0	1.336668E+0	1.208951E+0	1.159140E+0	1.342088E+0	1.340618E+0	1.233222E+0	1.231176E+0	1.360352E+0	1.325064E+0	1.352637E+0	1.355013E+0	1.353305E+0	1.351986E+0	1.273017E+0	1.199123E+0	1.393253E+0	1.376468E+0	1.220507E+0	1.199422E+0	1.322565E+0	1.373657E+0	1.276213E+0	1.260510E+0	1.298111E+0	1.328701E+0	1.338662E+0	1.370227E+0	1.303184E+0	1.387356E+0	1.112091E+0	1.200165E+0	1.044890E+0	1.359970E+0	1.181924E+0	1.236174E+0	1.326356E+0	1.402816E+0	1.238496E+0	1.214120E+0	1.307164E+0	1.369076E+0	1.369430E+0	1.293843E+0	1.295669E+0	1.380533E+0	1.225367E+0	1.187698E+0	1.336393E+0	1.308041E+0	1.251435E+0	1.195642E+0	1.444379E+0	1.344712E+0	1.318248E+0	1.242761E+0	1.308658E+0	1.365408E+0
5.457670E+2	1.173028E+0	1.195873E+0	1.220819E+0	1.241199E+0	1.182801E+0	1.223868E+0	1.266023E+0	1.244478E+0	1.260479E+0	1.035607E+0	1.214306E+0	1.259701E+0	1.264336E+0	1.047152E+0	1.052168E+0	1.153031E+0	1.255645E+0	1.167674E+0	1.098674E+0	1.177362E+0	1.175743E+0	1.261468E+0	1.171089E+0	1.236890E+0	1.160244E+0	1.022405E+0	1.216724E+0	1.203117E+0	1.285092E+0	1.084405E+0	1.121079E+0	1.234252E+0	1.195109E+0	1.142549E+0	1.021048E+0	1.247814E+0	1.281618E+0	1.208699E+0	1.162474E+0	1.193592E+0	1.204309E+0	1.193025E+0	1.170799E+0	1.238322E+0	1.261240E+0	1.191481E+0	1.050583E+0	1.234690E+0	1.224687E+0	1.153694E+0	1.067443E+0	1.209834E+0	1.188636E+0	1.234139E+0	1.082756E+0	1.243618E+0	1.231026E+0	1.021951E+0	1.146020E+0	1.224924E+0	1.237611E+0	1.031781E+0	1.081965E+0	1.245254E+0	1.212554E+0	1.105404E+0	1.088326E+0	1.233109E+0	1.204429E+0	1.232212E+0	1.139247E+0	1.222356E+0	1.208865E+0	1.081851E+0	1.159978E+0	1.235580E+0	1.222261E+0	1.074381E+0	1.053678E+0	1.167916E+0	1.233865E+0	1.077776E+0	1.046382E+0	1.190573E+0	1.191235E+0	1.154024E+0	1.095559E+0	1.231366E+0	1.193162E+0	1.086721E+0	1.154879E+0	1.196065E+0	1.188662E+0	1.086595E+0	9.289491E-1	1.122340E+0	1.260163E+0	1.071654E+0	1.053090E+0	1.190235E+0	1.221913E+0	1.137264E+0	1.092939E+0	1.217682E+0	1.176842E+0	1.162766E+0	1.205939E+0	1.255084E+0	1.212134E+0	1.059546E+0	1.067743E+0	1.240563E+0	1.209554E+0	1.025236E+0	1.004421E+0	1.269415E+0	1.251812E+0	1.102520E+0	1.091067E+0	1.216722E+0	1.185336E+0	1.172933E+0	1.225012E+0	1.184387E+0	1.178696E+0	1.095802E+0	1.077662E+0	1.187754E+0	1.221325E+0	1.082269E+0	1.112175E+0	1.180958E+0	1.209083E+0	1.157737E+0	1.131930E+0	1.229496E+0	1.243827E+0	1.180007E+0	1.201708E+0	1.230268E+0	1.206201E+0	1.091091E+0	1.085577E+0	1.012226E+0	1.161629E+0	1.053040E+0	1.081947E+0	1.180569E+0	1.223430E+0	1.128979E+0	1.172572E+0	1.241946E+0	1.230813E+0	1.237468E+0	1.140303E+0	1.225008E+0	1.196289E+0	1.218741E+0	1.082909E+0	1.245154E+0	1.208872E+0	1.140333E+0	1.154428E+0	1.180812E+0	1.182363E+0	1.188110E+0	1.116521E+0	1.204860E+0	1.185262E+0
5.460110E+2	1.200488E+0	1.258196E+0	1.178740E+0	1.206699E+0	1.206851E+0	1.240589E+0	1.276646E+0	1.217454E+0	1.198240E+0	1.055929E+0	1.259705E+0	1.262358E+0	1.236536E+0	1.068107E+0	1.084467E+0	1.150207E+0	1.227912E+0	1.126501E+0	1.058616E+0	1.141345E+0	1.212747E+0	1.265899E+0	1.178744E+0	1.268504E+0	1.247528E+0	1.075792E+0	1.171962E+0	1.226537E+0	1.191386E+0	1.071289E+0	1.067924E+0	1.194167E+0	1.218961E+0	1.114816E+0	1.079014E+0	1.200000E+0	1.255192E+0	1.159627E+0	1.133979E+0	1.304394E+0	1.194714E+0	1.191105E+0	1.187887E+0	1.235803E+0	1.244357E+0	1.201738E+0	1.072147E+0	1.202598E+0	1.299373E+0	1.284343E+0	1.031738E+0	1.229502E+0	1.236869E+0	1.184354E+0	1.118422E+0	1.240473E+0	1.198683E+0	1.033863E+0	1.198556E+0	1.150101E+0	1.208344E+0	1.079115E+0	1.030912E+0	1.213819E+0	1.242129E+0	1.086051E+0	1.048436E+0	1.200685E+0	1.208716E+0	1.144064E+0	1.124698E+0	1.216870E+0	1.185931E+0	1.023310E+0	1.184380E+0	1.293075E+0	1.233498E+0	1.000276E+0	1.023086E+0	1.145548E+0	1.220680E+0	1.109174E+0	1.064600E+0	1.278631E+0	1.184929E+0	1.203400E+0	1.094968E+0	1.246526E+0	1.217219E+0	1.082142E+0	1.139206E+0	1.239431E+0	1.183192E+0	1.070612E+0	9.276735E-1	1.168158E+0	1.221037E+0	1.071098E+0	1.055367E+0	1.158215E+0	1.267076E+0	1.138479E+0	1.102243E+0	1.227849E+0	1.216460E+0	1.170928E+0	1.211317E+0	1.272344E+0	1.186083E+0	1.072992E+0	1.051015E+0	1.205383E+0	1.183727E+0	1.031713E+0	1.051942E+0	1.252315E+0	1.225734E+0	1.110534E+0	1.112903E+0	1.200286E+0	1.214065E+0	1.195574E+0	1.187959E+0	1.260907E+0	1.198615E+0	1.108551E+0	1.059382E+0	1.212290E+0	1.187723E+0	1.094344E+0	1.083862E+0	1.219001E+0	1.208381E+0	1.187882E+0	1.161605E+0	1.168435E+0	1.261793E+0	1.156247E+0	1.221179E+0	1.149639E+0	1.163191E+0	1.033182E+0	1.130774E+0	9.789078E-1	1.264992E+0	1.055404E+0	1.167291E+0	1.161031E+0	1.270800E+0	1.083137E+0	1.183115E+0	1.236510E+0	1.197892E+0	1.200728E+0	1.162434E+0	1.190058E+0	1.208154E+0	1.168386E+0	1.051339E+0	1.237221E+0	1.187798E+0	1.136567E+0	1.120868E+0	1.266788E+0	1.191529E+0	1.217574E+0	1.125638E+0	1.184100E+0	1.245684E+0
5.467660E+2	1.312553E+0	1.286792E+0	1.303577E+0	1.270769E+0	1.274759E+0	1.237913E+0	1.309767E+0	1.235680E+0	1.242697E+0	1.232258E+0	1.253028E+0	1.304203E+0	1.319939E+0	1.170560E+0	1.180275E+0	1.172803E+0	1.295858E+0	1.254659E+0	1.169636E+0	1.258228E+0	1.301416E+0	1.278568E+0	1.232979E+0	1.271730E+0	1.311726E+0	1.127513E+0	1.232563E+0	1.279540E+0	1.257931E+0	1.127927E+0	1.188836E+0	1.272110E+0	1.272974E+0	1.163653E+0	1.132149E+0	1.294927E+0	1.366178E+0	1.250224E+0	1.214401E+0	1.324061E+0	1.246108E+0	1.236592E+0	1.283192E+0	1.265414E+0	1.287574E+0	1.302950E+0	1.056259E+0	1.294291E+0	1.322802E+0	1.281074E+0	1.102015E+0	1.320122E+0	1.247352E+0	1.277201E+0	1.161470E+0	1.275701E+0	1.274749E+0	1.110100E+0	1.231143E+0	1.245386E+0	1.260777E+0	1.069648E+0	1.114454E+0	1.307412E+0	1.259028E+0	1.123586E+0	1.138186E+0	1.309235E+0	1.216575E+0	1.234676E+0	1.153214E+0	1.271760E+0	1.300599E+0	1.033895E+0	1.224607E+0	1.296455E+0	1.331520E+0	1.107245E+0	1.025973E+0	1.303658E+0	1.328937E+0	1.154200E+0	1.143896E+0	1.330547E+0	1.304011E+0	1.198667E+0	1.110332E+0	1.331800E+0	1.264717E+0	1.159330E+0	1.202557E+0	1.286299E+0	1.250652E+0	1.115010E+0	1.082620E+0	1.271921E+0	1.309248E+0	1.135049E+0	1.078131E+0	1.280032E+0	1.269227E+0	1.210618E+0	1.160382E+0	1.238017E+0	1.320376E+0	1.203569E+0	1.274046E+0	1.293200E+0	1.225462E+0	1.061299E+0	1.051015E+0	1.175675E+0	1.278890E+0	1.164787E+0	1.102779E+0	1.275829E+0	1.245469E+0	1.217810E+0	1.225716E+0	1.311761E+0	1.268258E+0	1.282594E+0	1.229411E+0	1.338867E+0	1.298206E+0	1.183135E+0	1.141930E+0	1.285903E+0	1.258502E+0	1.153500E+0	1.108130E+0	1.244363E+0	1.263941E+0	1.232750E+0	1.230839E+0	1.313850E+0	1.254358E+0	1.178473E+0	1.295703E+0	1.272336E+0	1.258332E+0	1.140727E+0	1.164516E+0	1.015493E+0	1.324355E+0	1.108022E+0	1.187408E+0	1.186581E+0	1.320501E+0	1.176733E+0	1.227763E+0	1.295615E+0	1.274266E+0	1.292202E+0	1.197016E+0	1.315426E+0	1.280603E+0	1.174349E+0	1.123885E+0	1.281651E+0	1.276429E+0	1.186783E+0	1.157959E+0	1.243531E+0	1.248480E+0	1.255020E+0	1.235047E+0	1.264743E+0	1.278133E+0
5.475180E+2	1.329622E+0	1.325653E+0	1.292356E+0	1.358077E+0	1.329931E+0	1.302121E+0	1.392253E+0	1.387143E+0	1.365269E+0	1.343439E+0	1.295088E+0	1.399182E+0	1.338841E+0	1.369063E+0	1.186296E+0	1.194694E+0	1.359649E+0	1.374120E+0	1.213701E+0	1.266381E+0	1.350989E+0	1.345696E+0	1.247652E+0	1.343997E+0	1.378089E+0	1.259871E+0	1.307625E+0	1.309120E+0	1.304780E+0	1.276977E+0	1.196429E+0	1.314423E+0	1.334703E+0	1.310164E+0	1.185887E+0	1.368760E+0	1.360893E+0	1.335789E+0	1.205537E+0	1.329961E+0	1.363287E+0	1.284642E+0	1.319342E+0	1.349831E+0	1.346323E+0	1.316627E+0	1.208332E+0	1.385983E+0	1.319144E+0	1.351622E+0	1.122985E+0	1.351730E+0	1.382266E+0	1.300750E+0	1.199597E+0	1.381381E+0	1.340634E+0	1.154770E+0	1.306955E+0	1.294629E+0	1.363210E+0	1.158990E+0	1.128376E+0	1.324557E+0	1.363242E+0	1.183996E+0	1.179649E+0	1.359278E+0	1.302306E+0	1.316660E+0	1.190458E+0	1.328482E+0	1.357298E+0	1.117349E+0	1.301770E+0	1.322832E+0	1.419551E+0	1.129798E+0	1.139099E+0	1.397752E+0	1.411519E+0	1.227066E+0	1.195867E+0	1.329892E+0	1.313119E+0	1.326507E+0	1.258062E+0	1.293900E+0	1.310365E+0	1.250911E+0	1.319464E+0	1.314978E+0	1.335736E+0	1.174207E+0	1.073693E+0	1.335930E+0	1.361889E+0	1.214013E+0	1.145855E+0	1.282120E+0	1.326573E+0	1.321556E+0	1.176661E+0	1.369516E+0	1.370383E+0	1.226168E+0	1.299737E+0	1.329875E+0	1.332094E+0	1.217387E+0	1.185429E+0	1.281997E+0	1.376770E+0	1.171264E+0	1.128751E+0	1.299337E+0	1.332160E+0	1.249252E+0	1.237240E+0	1.376787E+0	1.339428E+0	1.290380E+0	1.274001E+0	1.310714E+0	1.300862E+0	1.234770E+0	1.173771E+0	1.330376E+0	1.346442E+0	1.267593E+0	1.208667E+0	1.342291E+0	1.379284E+0	1.295143E+0	1.243821E+0	1.337138E+0	1.359059E+0	1.254353E+0	1.381639E+0	1.352263E+0	1.315679E+0	1.155999E+0	1.209076E+0	1.080822E+0	1.362764E+0	1.181335E+0	1.219716E+0	1.240687E+0	1.365542E+0	1.207933E+0	1.348069E+0	1.326184E+0	1.366441E+0	1.302701E+0	1.298685E+0	1.320742E+0	1.364916E+0	1.263796E+0	1.243451E+0	1.364955E+0	1.365681E+0	1.305417E+0	1.209775E+0	1.349943E+0	1.323108E+0	1.289397E+0	1.234344E+0	1.360557E+0	1.296035E+0
5.482600E+2	1.450593E+0	1.451764E+0	1.426311E+0	1.474953E+0	1.411277E+0	1.441909E+0	1.447239E+0	1.473246E+0	1.439575E+0	1.478525E+0	1.421937E+0	1.501472E+0	1.460603E+0	1.416799E+0	1.263489E+0	1.292142E+0	1.442849E+0	1.411232E+0	1.249183E+0	1.388699E+0	1.441054E+0	1.513525E+0	1.335063E+0	1.468520E+0	1.409832E+0	1.445063E+0	1.430889E+0	1.410813E+0	1.393733E+0	1.479089E+0	1.333111E+0	1.438387E+0	1.449042E+0	1.477173E+0	1.228761E+0	1.462983E+0	1.489713E+0	1.411290E+0	1.262529E+0	1.461741E+0	1.477042E+0	1.410854E+0	1.318029E+0	1.424174E+0	1.461798E+0	1.427413E+0	1.241812E+0	1.441000E+0	1.400418E+0	1.416944E+0	1.247104E+0	1.417060E+0	1.438884E+0	1.405035E+0	1.334272E+0	1.437995E+0	1.489776E+0	1.279250E+0	1.335551E+0	1.414854E+0	1.458935E+0	1.316964E+0	1.232801E+0	1.486018E+0	1.440702E+0	1.357602E+0	1.272548E+0	1.396637E+0	1.408758E+0	1.443640E+0	1.310333E+0	1.448027E+0	1.415271E+0	1.240659E+0	1.409269E+0	1.406704E+0	1.432035E+0	1.286387E+0	1.196818E+0	1.352246E+0	1.474672E+0	1.258463E+0	1.241407E+0	1.453437E+0	1.449716E+0	1.393468E+0	1.327198E+0	1.423390E+0	1.470745E+0	1.311094E+0	1.376935E+0	1.391225E+0	1.432973E+0	1.227484E+0	1.206321E+0	1.403313E+0	1.395325E+0	1.241818E+0	1.251140E+0	1.449881E+0	1.358832E+0	1.402789E+0	1.313873E+0	1.506441E+0	1.408705E+0	1.327863E+0	1.390542E+0	1.455722E+0	1.384802E+0	1.256554E+0	1.217158E+0	1.372681E+0	1.389008E+0	1.242513E+0	1.267447E+0	1.389821E+0	1.432947E+0	1.304121E+0	1.306386E+0	1.481114E+0	1.423654E+0	1.402163E+0	1.427240E+0	1.378570E+0	1.387177E+0	1.336128E+0	1.258085E+0	1.402454E+0	1.438669E+0	1.344860E+0	1.275689E+0	1.424015E+0	1.484777E+0	1.351929E+0	1.309963E+0	1.422123E+0	1.363394E+0	1.449798E+0	1.444082E+0	1.442707E+0	1.425806E+0	1.176365E+0	1.316659E+0	1.355857E+0	1.505936E+0	1.210303E+0	1.311764E+0	1.430809E+0	1.440092E+0	1.332725E+0	1.377835E+0	1.375777E+0	1.417137E+0	1.473652E+0	1.339490E+0	1.376967E+0	1.436117E+0	1.282349E+0	1.247482E+0	1.425252E+0	1.363202E+0	1.333660E+0	1.342249E+0	1.451424E+0	1.432433E+0	1.387004E+0	1.379521E+0	1.431620E+0	1.390025E+0
5.490100E+2	1.331849E+0	1.305855E+0	1.344254E+0	1.410885E+0	1.308004E+0	1.340244E+0	1.369755E+0	1.392170E+0	1.347487E+0	1.379302E+0	1.323795E+0	1.352688E+0	1.380541E+0	1.327734E+0	1.206005E+0	1.290728E+0	1.395010E+0	1.330625E+0	1.240598E+0	1.297642E+0	1.326549E+0	1.409028E+0	1.269346E+0	1.314960E+0	1.356451E+0	1.360531E+0	1.293852E+0	1.360276E+0	1.344844E+0	1.381910E+0	1.253088E+0	1.327042E+0	1.363464E+0	1.353573E+0	1.170793E+0	1.327974E+0	1.381368E+0	1.308106E+0	1.266327E+0	1.387656E+0	1.294763E+0	1.364726E+0	1.315399E+0	1.318334E+0	1.342274E+0	1.374071E+0	1.173719E+0	1.410435E+0	1.299372E+0	1.332025E+0	1.137721E+0	1.324334E+0	1.409528E+0	1.390234E+0	1.189141E+0	1.379493E+0	1.381963E+0	1.317366E+0	1.277030E+0	1.302942E+0	1.347358E+0	1.369029E+0	1.133598E+0	1.273831E+0	1.355497E+0	1.372854E+0	1.254704E+0	1.331086E+0	1.333742E+0	1.332686E+0	1.174745E+0	1.390694E+0	1.378959E+0	1.250624E+0	1.299794E+0	1.347184E+0	1.337765E+0	1.267698E+0	1.130443E+0	1.338365E+0	1.344900E+0	1.339626E+0	1.165864E+0	1.280606E+0	1.398578E+0	1.379940E+0	1.228516E+0	1.360224E+0	1.324551E+0	1.206431E+0	1.339055E+0	1.361847E+0	1.366123E+0	1.182495E+0	1.060940E+0	1.339977E+0	1.338413E+0	1.180092E+0	1.192522E+0	1.321797E+0	1.321555E+0	1.287608E+0	1.197008E+0	1.319355E+0	1.333363E+0	1.328493E+0	1.278227E+0	1.352166E+0	1.327853E+0	1.163603E+0	1.108127E+0	1.307013E+0	1.331229E+0	1.161845E+0	1.119907E+0	1.261578E+0	1.377265E+0	1.228908E+0	1.236029E+0	1.318907E+0	1.313962E+0	1.367497E+0	1.335545E+0	1.301330E+0	1.345346E+0	1.235407E+0	1.203841E+0	1.357212E+0	1.385764E+0	1.242238E+0	1.195955E+0	1.285928E+0	1.325128E+0	1.309163E+0	1.230835E+0	1.357913E+0	1.324366E+0	1.282711E+0	1.374259E+0	1.300380E+0	1.300687E+0	1.096818E+0	1.238359E+0	1.329073E+0	1.355083E+0	1.187246E+0	1.267264E+0	1.259475E+0	1.379521E+0	1.252502E+0	1.278613E+0	1.351321E+0	1.372365E+0	1.324444E+0	1.286928E+0	1.369368E+0	1.332438E+0	1.208140E+0	1.208522E+0	1.329253E+0	1.330972E+0	1.275914E+0	1.185045E+0	1.340077E+0	1.381371E+0	1.273436E+0	1.279231E+0	1.377325E+0	1.412405E+0
5.497740E+2	1.322201E+0	1.368178E+0	1.337942E+0	1.341179E+0	1.356103E+0	1.284733E+0	1.333511E+0	1.301044E+0	1.348758E+0	1.335668E+0	1.267715E+0	1.371954E+0	1.404447E+0	1.341121E+0	1.199986E+0	1.273783E+0	1.362420E+0	1.354980E+0	1.186805E+0	1.306474E+0	1.350291E+0	1.311498E+0	1.204904E+0	1.296249E+0	1.356450E+0	1.342733E+0	1.353073E+0	1.351029E+0	1.344168E+0	1.380120E+0	1.204607E+0	1.341887E+0	1.316464E+0	1.303532E+0	1.205211E+0	1.308287E+0	1.400528E+0	1.331386E+0	1.228969E+0	1.357497E+0	1.276945E+0	1.330130E+0	1.303570E+0	1.352981E+0	1.302430E+0	1.319364E+0	1.206062E+0	1.346252E+0	1.322073E+0	1.353583E+0	1.193830E+0	1.318716E+0	1.355003E+0	1.292004E+0	1.164543E+0	1.358737E+0	1.346024E+0	1.356079E+0	1.209861E+0	1.294628E+0	1.321748E+0	1.402164E+0	1.123156E+0	1.308839E+0	1.354090E+0	1.351737E+0	1.143434E+0	1.365622E+0	1.305164E+0	1.349330E+0	1.234099E+0	1.393133E+0	1.309518E+0	1.305426E+0	1.339364E+0	1.345830E+0	1.415179E+0	1.387553E+0	1.128131E+0	1.416262E+0	1.340734E+0	1.323036E+0	1.153004E+0	1.408749E+0	1.376864E+0	1.353561E+0	1.216106E+0	1.306534E+0	1.314064E+0	1.294737E+0	1.260031E+0	1.370241E+0	1.305956E+0	1.313911E+0	1.080069E+0	1.339301E+0	1.355487E+0	1.246265E+0	1.140733E+0	1.357995E+0	1.386070E+0	1.348230E+0	1.213288E+0	1.340369E+0	1.313880E+0	1.320328E+0	1.256720E+0	1.363674E+0	1.303011E+0	1.106899E+0	1.173891E+0	1.354702E+0	1.372013E+0	1.158901E+0	1.151405E+0	1.334250E+0	1.344844E+0	1.243703E+0	1.276061E+0	1.384648E+0	1.340079E+0	1.274814E+0	1.268348E+0	1.291947E+0	1.372572E+0	1.232856E+0	1.141340E+0	1.314273E+0	1.317844E+0	1.256122E+0	1.180356E+0	1.308473E+0	1.374357E+0	1.325288E+0	1.194983E+0	1.344065E+0	1.350386E+0	1.197635E+0	1.337331E+0	1.369793E+0	1.301342E+0	1.158546E+0	1.230084E+0	1.332339E+0	1.349497E+0	1.163599E+0	1.219107E+0	1.323350E+0	1.321278E+0	1.227032E+0	1.261873E+0	1.341131E+0	1.388168E+0	1.363430E+0	1.244739E+0	1.253880E+0	1.293718E+0	1.233317E+0	1.152769E+0	1.300692E+0	1.270854E+0	1.236368E+0	1.271595E+0	1.342899E+0	1.262228E+0	1.236605E+0	1.240657E+0	1.333409E+0	1.336317E+0
5.505060E+2	1.311811E+0	1.359380E+0	1.362489E+0	1.302454E+0	1.317907E+0	1.367669E+0	1.317265E+0	1.343150E+0	1.389403E+0	1.373921E+0	1.347831E+0	1.408484E+0	1.352183E+0	1.342871E+0	1.222429E+0	1.291436E+0	1.333995E+0	1.371220E+0	1.164487E+0	1.297641E+0	1.309796E+0	1.350130E+0	1.250843E+0	1.339479E+0	1.361499E+0	1.346625E+0	1.311069E+0	1.291247E+0	1.318363E+0	1.376545E+0	1.205189E+0	1.381973E+0	1.322077E+0	1.328854E+0	1.198569E+0	1.379309E+0	1.407796E+0	1.316286E+0	1.268227E+0	1.366021E+0	1.336563E+0	1.345507E+0	1.285165E+0	1.394562E+0	1.371988E+0	1.367917E+0	1.158399E+0	1.395154E+0	1.335250E+0	1.339866E+0	1.144524E+0	1.388259E+0	1.357799E+0	1.315551E+0	1.179918E+0	1.417236E+0	1.378968E+0	1.353696E+0	1.281019E+0	1.322766E+0	1.274192E+0	1.345364E+0	1.121415E+0	1.291692E+0	1.350569E+0	1.342942E+0	1.163381E+0	1.358574E+0	1.329455E+0	1.304332E+0	1.223626E+0	1.347391E+0	1.283399E+0	1.349643E+0	1.344638E+0	1.343125E+0	1.377097E+0	1.348244E+0	1.119477E+0	1.317541E+0	1.305345E+0	1.341995E+0	1.135859E+0	1.350920E+0	1.350246E+0	1.374529E+0	1.214926E+0	1.402543E+0	1.323316E+0	1.394824E+0	1.307706E+0	1.376537E+0	1.329051E+0	1.336998E+0	1.100474E+0	1.291463E+0	1.298577E+0	1.334686E+0	1.131626E+0	1.382357E+0	1.361700E+0	1.390059E+0	1.160964E+0	1.309189E+0	1.317126E+0	1.336654E+0	1.283006E+0	1.353608E+0	1.370867E+0	1.333140E+0	1.103511E+0	1.321086E+0	1.359779E+0	1.356747E+0	1.165219E+0	1.368447E+0	1.333569E+0	1.355295E+0	1.245734E+0	1.332482E+0	1.336161E+0	1.316554E+0	1.328638E+0	1.346085E+0	1.363938E+0	1.256445E+0	1.230963E+0	1.359515E+0	1.312837E+0	1.277853E+0	1.153197E+0	1.328905E+0	1.332162E+0	1.338607E+0	1.270397E+0	1.365467E+0	1.315072E+0	1.273514E+0	1.366200E+0	1.307391E+0	1.322846E+0	1.091091E+0	1.223081E+0	1.327763E+0	1.401876E+0	1.144679E+0	1.200818E+0	1.263232E+0	1.372530E+0	1.239129E+0	1.250711E+0	1.332299E+0	1.322329E+0	1.391173E+0	1.279319E+0	1.345056E+0	1.402391E+0	1.230669E+0	1.180980E+0	1.321319E+0	1.354524E+0	1.243903E+0	1.312810E+0	1.334440E+0	1.330963E+0	1.317635E+0	1.233645E+0	1.394092E+0	1.387787E+0
5.512620E+2	1.259860E+0	1.322719E+0	1.262198E+0	1.317240E+0	1.233731E+0	1.331549E+0	1.301018E+0	1.256420E+0	1.398294E+0	1.311759E+0	1.296423E+0	1.306860E+0	1.263780E+0	1.282330E+0	1.138666E+0	1.184102E+0	1.311805E+0	1.279014E+0	1.137019E+0	1.256870E+0	1.267204E+0	1.351398E+0	1.184487E+0	1.300765E+0	1.287200E+0	1.257090E+0	1.240137E+0	1.328843E+0	1.297313E+0	1.287112E+0	1.179489E+0	1.302543E+0	1.345925E+0	1.340911E+0	1.086260E+0	1.313208E+0	1.255852E+0	1.306849E+0	1.170075E+0	1.292591E+0	1.252277E+0	1.314754E+0	1.230610E+0	1.303214E+0	1.306483E+0	1.278330E+0	1.140808E+0	1.268311E+0	1.297173E+0	1.313084E+0	1.122419E+0	1.342601E+0	1.288596E+0	1.305458E+0	1.194676E+0	1.265008E+0	1.259777E+0	1.272101E+0	1.279022E+0	1.302303E+0	1.265044E+0	1.345365E+0	1.128956E+0	1.293835E+0	1.315361E+0	1.285464E+0	1.099348E+0	1.252139E+0	1.248725E+0	1.301251E+0	1.207332E+0	1.265660E+0	1.305699E+0	1.332829E+0	1.274071E+0	1.289016E+0	1.311542E+0	1.322470E+0	1.107356E+0	1.299802E+0	1.337960E+0	1.284530E+0	1.134253E+0	1.264175E+0	1.269689E+0	1.299449E+0	1.148740E+0	1.303375E+0	1.298028E+0	1.349034E+0	1.215619E+0	1.290498E+0	1.224520E+0	1.307399E+0	1.095373E+0	1.318412E+0	1.336280E+0	1.281300E+0	1.067886E+0	1.300917E+0	1.260624E+0	1.325799E+0	1.179569E+0	1.372228E+0	1.296993E+0	1.280783E+0	1.222069E+0	1.320525E+0	1.258784E+0	1.299815E+0	1.115627E+0	1.287470E+0	1.263256E+0	1.288440E+0	1.075702E+0	1.233792E+0	1.291985E+0	1.297954E+0	1.236029E+0	1.289609E+0	1.254548E+0	1.324337E+0	1.262066E+0	1.322988E+0	1.310158E+0	1.315728E+0	1.091812E+0	1.330376E+0	1.300685E+0	1.273025E+0	1.164754E+0	1.309885E+0	1.259018E+0	1.245369E+0	1.262980E+0	1.311331E+0	1.295248E+0	1.356290E+0	1.309130E+0	1.287059E+0	1.264195E+0	1.299180E+0	1.176610E+0	1.278112E+0	1.348100E+0	1.238091E+0	1.145344E+0	1.213635E+0	1.263036E+0	1.236584E+0	1.254429E+0	1.264363E+0	1.292703E+0	1.276457E+0	1.268253E+0	1.316184E+0	1.288720E+0	1.210790E+0	1.180309E+0	1.281650E+0	1.234905E+0	1.184899E+0	1.168558E+0	1.325278E+0	1.266155E+0	1.215732E+0	1.213304E+0	1.289495E+0	1.283728E+0
5.520100E+2	1.333332E+0	1.369645E+0	1.342150E+0	1.367933E+0	1.305174E+0	1.279382E+0	1.280396E+0	1.323039E+0	1.331607E+0	1.341045E+0	1.312447E+0	1.308188E+0	1.322715E+0	1.360913E+0	1.189583E+0	1.263896E+0	1.367273E+0	1.372379E+0	1.208552E+0	1.254151E+0	1.330043E+0	1.363430E+0	1.194059E+0	1.363999E+0	1.303072E+0	1.282116E+0	1.291786E+0	1.258585E+0	1.338056E+0	1.349716E+0	1.233813E+0	1.425024E+0	1.331898E+0	1.374678E+0	1.191926E+0	1.313913E+0	1.343054E+0	1.342083E+0	1.228966E+0	1.324720E+0	1.311208E+0	1.357039E+0	1.325256E+0	1.354242E+0	1.284873E+0	1.428098E+0	1.169746E+0	1.363061E+0	1.267155E+0	1.290221E+0	1.184763E+0	1.351730E+0	1.340322E+0	1.316898E+0	1.228499E+0	1.357476E+0	1.361599E+0	1.372160E+0	1.235133E+0	1.286314E+0	1.348575E+0	1.411039E+0	1.177110E+0	1.287404E+0	1.369580E+0	1.377545E+0	1.150783E+0	1.281743E+0	1.295878E+0	1.388165E+0	1.221881E+0	1.321773E+0	1.336915E+0	1.378291E+0	1.252307E+0	1.329595E+0	1.323404E+0	1.310870E+0	1.048483E+0	1.376927E+0	1.371269E+0	1.384057E+0	1.124608E+0	1.323319E+0	1.360051E+0	1.334621E+0	1.230879E+0	1.322956E+0	1.264100E+0	1.375853E+0	1.202557E+0	1.396122E+0	1.282862E+0	1.343508E+0	1.060302E+0	1.321108E+0	1.321343E+0	1.269066E+0	1.092926E+0	1.324583E+0	1.345930E+0	1.339136E+0	1.192359E+0	1.332913E+0	1.330119E+0	1.375570E+0	1.275840E+0	1.391721E+0	1.324824E+0	1.320861E+0	1.154856E+0	1.256198E+0	1.353660E+0	1.367344E+0	1.086203E+0	1.326411E+0	1.342027E+0	1.275761E+0	1.214798E+0	1.336771E+0	1.298946E+0	1.382353E+0	1.280910E+0	1.346086E+0	1.291568E+0	1.273655E+0	1.196175E+0	1.348009E+0	1.398630E+0	1.288116E+0	1.164176E+0	1.296496E+0	1.334270E+0	1.268503E+0	1.201166E+0	1.356027E+0	1.380741E+0	1.298806E+0	1.327258E+0	1.291266E+0	1.319585E+0	1.313182E+0	1.219262E+0	1.277462E+0	1.351590E+0	1.349830E+0	1.196553E+0	1.288783E+0	1.398157E+0	1.329543E+0	1.243269E+0	1.343850E+0	1.369074E+0	1.349935E+0	1.264796E+0	1.341256E+0	1.338686E+0	1.387031E+0	1.195758E+0	1.304658E+0	1.323534E+0	1.328012E+0	1.199176E+0	1.387296E+0	1.268119E+0	1.298604E+0	1.255385E+0	1.278317E+0	1.325128E+0
5.527590E+2	1.297710E+0	1.282392E+0	1.267108E+0	1.263730E+0	1.281122E+0	1.237913E+0	1.319139E+0	1.262076E+0	1.282071E+0	1.253181E+0	1.234334E+0	1.263023E+0	1.269340E+0	1.271267E+0	1.123885E+0	1.148088E+0	1.308340E+0	1.302211E+0	1.149608E+0	1.158334E+0	1.244863E+0	1.318466E+0	1.143651E+0	1.254955E+0	1.202081E+0	1.314371E+0	1.213281E+0	1.256735E+0	1.276263E+0	1.299038E+0	1.136849E+0	1.281018E+0	1.311554E+0	1.257106E+0	1.124904E+0	1.307585E+0	1.298792E+0	1.271614E+0	1.158043E+0	1.311602E+0	1.225548E+0	1.273110E+0	1.253616E+0	1.295021E+0	1.235577E+0	1.259183E+0	1.100519E+0	1.237747E+0	1.227615E+0	1.215098E+0	1.071978E+0	1.280079E+0	1.223587E+0	1.241542E+0	1.127033E+0	1.258088E+0	1.240610E+0	1.295330E+0	1.155330E+0	1.318287E+0	1.235781E+0	1.289156E+0	1.048899E+0	1.275261E+0	1.318883E+0	1.247341E+0	1.104597E+0	1.250025E+0	1.195858E+0	1.267346E+0	1.186965E+0	1.335191E+0	1.307607E+0	1.297332E+0	1.250989E+0	1.255192E+0	1.261595E+0	1.364998E+0	1.066376E+0	1.200308E+0	1.310201E+0	1.246022E+0	1.101033E+0	1.277320E+0	1.259881E+0	1.285244E+0	1.133379E+0	1.321695E+0	1.228322E+0	1.294084E+0	1.185576E+0	1.247827E+0	1.265237E+0	1.297931E+0	1.063491E+0	1.304937E+0	1.332726E+0	1.227917E+0	1.079268E+0	1.256364E+0	1.217614E+0	1.251235E+0	1.102243E+0	1.246829E+0	1.298294E+0	1.226796E+0	1.219084E+0	1.303986E+0	1.215769E+0	1.284030E+0	1.088513E+0	1.203819E+0	1.294523E+0	1.281967E+0	1.087307E+0	1.240203E+0	1.330044E+0	1.270828E+0	1.171734E+0	1.258167E+0	1.298294E+0	1.293207E+0	1.157814E+0	1.239248E+0	1.258370E+0	1.277479E+0	1.132498E+0	1.266732E+0	1.299253E+0	1.210850E+0	1.146265E+0	1.272545E+0	1.265347E+0	1.280420E+0	1.140586E+0	1.288670E+0	1.277903E+0	1.314902E+0	1.293690E+0	1.259014E+0	1.250512E+0	1.301090E+0	1.167062E+0	1.250676E+0	1.298513E+0	1.286573E+0	1.181310E+0	1.306817E+0	1.235855E+0	1.248044E+0	1.246367E+0	1.286102E+0	1.317718E+0	1.399423E+0	1.221916E+0	1.291110E+0	1.280601E+0	1.297588E+0	1.133289E+0	1.307832E+0	1.196475E+0	1.235115E+0	1.181513E+0	1.302729E+0	1.302816E+0	1.281416E+0	1.178239E+0	1.219232E+0	1.207641E+0
5.534880E+2	1.161153E+0	1.266995E+0	1.168220E+0	1.211627E+0	1.216047E+0	1.218517E+0	1.267899E+0	1.167175E+0	1.241426E+0	1.199983E+0	1.196948E+0	1.216529E+0	1.186498E+0	1.176966E+0	1.083371E+0	1.114193E+0	1.171752E+0	1.231464E+0	1.098101E+0	1.108727E+0	1.223917E+0	1.206369E+0	1.050497E+0	1.205918E+0	1.136439E+0	1.244300E+0	1.216036E+0	1.249957E+0	1.196819E+0	1.222129E+0	1.079605E+0	1.182290E+0	1.161439E+0	1.180535E+0	1.043389E+0	1.116324E+0	1.243299E+0	1.182275E+0	1.068754E+0	1.227687E+0	1.206364E+0	1.236592E+0	1.137277E+0	1.198003E+0	1.166023E+0	1.209261E+0	1.012565E+0	1.194957E+0	1.166109E+0	1.170679E+0	1.001699E+0	1.209834E+0	1.215898E+0	1.213956E+0	1.067382E+0	1.234185E+0	1.221443E+0	1.163106E+0	1.104123E+0	1.210855E+0	1.202248E+0	1.186205E+0	1.023372E+0	1.189529E+0	1.175234E+0	1.223293E+0	1.072579E+0	1.205620E+0	1.195856E+0	1.200159E+0	1.090948E+0	1.190640E+0	1.196122E+0	1.259966E+0	1.165252E+0	1.140206E+0	1.282822E+0	1.211635E+0	1.019624E+0	1.148634E+0	1.212353E+0	1.223512E+0	1.035668E+0	1.193203E+0	1.257779E+0	1.227074E+0	1.052423E+0	1.235156E+0	1.201798E+0	1.226709E+0	1.137246E+0	1.273709E+0	1.174073E+0	1.215053E+0	9.812348E-1	1.154008E+0	1.170529E+0	1.204004E+0	1.073577E+0	1.186754E+0	1.187508E+0	1.182127E+0	1.131313E+0	1.247506E+0	1.173595E+0	1.239349E+0	1.127080E+0	1.191802E+0	1.210317E+0	1.197511E+0	1.026785E+0	1.127988E+0	1.235385E+0	1.200118E+0	9.839752E-1	1.129059E+0	1.103101E+0	1.155539E+0	1.117147E+0	1.217436E+0	1.234960E+0	1.210430E+0	1.162210E+0	1.211097E+0	1.192640E+0	1.225845E+0	1.078841E+0	1.167817E+0	1.188438E+0	1.187910E+0	1.102353E+0	1.204206E+0	1.224555E+0	1.195594E+0	1.138733E+0	1.187950E+0	1.151517E+0	1.228293E+0	1.158737E+0	1.158053E+0	1.143642E+0	1.227910E+0	1.068387E+0	1.161829E+0	1.195151E+0	1.177196E+0	1.091091E+0	1.214385E+0	1.214888E+0	1.179281E+0	1.087616E+0	1.178086E+0	1.144564E+0	1.272708E+0	1.109179E+0	1.168783E+0	1.256871E+0	1.188262E+0	1.074177E+0	1.214212E+0	1.202054E+0	1.217540E+0	1.084952E+0	1.166013E+0	1.173852E+0	1.229239E+0	1.101092E+0	1.172123E+0	1.242327E+0
5.542530E+2	1.164122E+0	1.168744E+0	1.187857E+0	1.225005E+0	1.138237E+0	1.132907E+0	1.174164E+0	1.199856E+0	1.163310E+0	1.173084E+0	1.120839E+0	1.132840E+0	1.150358E+0	1.189189E+0	1.038480E+0	1.103601E+0	1.214738E+0	1.164195E+0	9.991004E-1	1.145423E+0	1.156193E+0	1.227902E+0	1.056877E+0	1.143976E+0	1.162407E+0	1.153651E+0	1.166453E+0	1.145799E+0	1.109225E+0	1.155947E+0	1.036383E+0	1.196394E+0	1.154426E+0	1.149786E+0	1.038558E+0	1.154997E+0	1.154775E+0	1.111182E+0	1.066220E+0	1.181794E+0	1.147430E+0	1.122551E+0	1.123474E+0	1.143820E+0	1.168050E+0	1.181908E+0	9.620619E-1	1.147582E+0	1.153661E+0	1.182438E+0	9.852638E-1	1.170497E+0	1.140403E+0	1.158112E+0	1.053238E+0	1.197071E+0	1.160348E+0	1.137497E+0	1.115428E+0	1.180158E+0	1.199810E+0	1.208098E+0	1.034975E+0	1.140233E+0	1.175939E+0	1.179893E+0	1.053161E+0	1.116101E+0	1.095121E+0	1.211870E+0	1.058942E+0	1.185763E+0	1.167454E+0	1.172152E+0	1.117110E+0	1.090154E+0	1.154210E+0	1.136243E+0	9.861471E-1	1.187197E+0	1.190840E+0	1.183817E+0	1.015843E+0	1.148517E+0	1.220655E+0	1.214224E+0	1.029969E+0	1.129669E+0	1.131478E+0	1.192037E+0	1.110468E+0	1.194663E+0	1.150981E+0	1.118563E+0	9.302239E-1	1.144576E+0	1.162703E+0	1.115029E+0	9.660166E-1	1.151949E+0	1.206861E+0	1.194251E+0	1.039452E+0	1.130919E+0	1.116441E+0	1.173438E+0	1.109157E+0	1.155126E+0	1.149127E+0	1.160097E+0	1.019862E+0	1.125642E+0	1.185085E+0	1.153011E+0	9.557947E-1	1.184631E+0	1.164418E+0	1.159858E+0	1.107444E+0	1.122397E+0	1.110251E+0	1.156660E+0	1.157185E+0	1.162731E+0	1.182681E+0	1.159548E+0	1.006907E+0	1.139446E+0	1.172710E+0	1.174026E+0	1.037640E+0	1.145028E+0	1.187984E+0	1.211718E+0	1.124515E+0	1.181657E+0	1.173201E+0	1.111025E+0	1.128525E+0	1.111779E+0	1.084994E+0	1.226000E+0	1.076027E+0	1.158561E+0	1.180485E+0	1.130489E+0	1.086215E+0	1.161782E+0	1.197803E+0	1.153174E+0	1.087615E+0	1.107434E+0	1.166290E+0	1.183483E+0	1.093271E+0	1.127754E+0	1.183796E+0	1.163086E+0	1.022455E+0	1.195172E+0	1.124580E+0	1.159165E+0	1.044914E+0	1.154031E+0	1.111662E+0	1.181356E+0	1.069532E+0	1.135395E+0	1.179668E+0
5.550140E+2	1.061705E+0	1.099088E+0	1.083358E+0	1.016596E+0	1.036378E+0	1.050640E+0	1.047313E+0	1.053421E+0	1.078208E+0	1.114508E+0	1.046734E+0	1.066420E+0	1.064177E+0	1.008732E+0	8.983257E-1	9.630789E-1	1.037242E+0	1.103886E+0	9.401570E-1	1.008155E+0	1.036804E+0	1.102506E+0	1.010300E+0	1.088487E+0	1.003710E+0	1.061890E+0	1.017708E+0	1.069995E+0	1.032496E+0	1.068307E+0	9.581104E-1	1.056840E+0	1.008518E+0	1.073212E+0	9.328910E-1	1.043897E+0	1.057003E+0	1.056444E+0	9.693323E-1	1.091973E+0	1.038473E+0	1.051438E+0	9.939906E-1	1.036090E+0	1.035018E+0	1.071805E+0	8.968059E-1	1.020740E+0	1.057741E+0	1.064203E+0	9.132861E-1	1.082690E+0	1.050229E+0	1.061900E+0	9.025742E-1	1.050503E+0	1.060923E+0	1.020761E+0	9.491737E-1	1.015805E+0	1.095548E+0	1.038288E+0	8.504892E-1	1.035211E+0	1.040740E+0	1.045582E+0	9.145970E-1	1.006847E+0	1.032252E+0	1.050370E+0	9.349907E-1	1.091226E+0	1.094193E+0	1.080606E+0	9.964200E-1	1.025220E+0	1.071175E+0	1.093068E+0	8.597462E-1	1.042199E+0	1.068702E+0	1.038677E+0	9.092230E-1	1.072945E+0	1.083358E+0	1.100589E+0	8.976026E-1	1.048818E+0	1.009341E+0	1.044856E+0	1.028830E+0	1.043569E+0	1.080483E+0	1.091924E+0	8.466935E-1	1.036769E+0	1.045325E+0	1.068876E+0	8.766666E-1	1.089300E+0	1.055606E+0	1.055425E+0	9.958469E-1	1.108550E+0	1.074874E+0	1.072370E+0	1.032090E+0	1.099753E+0	1.025532E+0	1.015117E+0	9.217903E-1	1.037302E+0	1.075646E+0	1.102961E+0	8.939060E-1	1.102698E+0	1.070681E+0	1.098204E+0	9.521707E-1	1.071662E+0	1.083481E+0	1.051951E+0	1.028441E+0	1.035681E+0	1.069810E+0	1.056917E+0	8.948786E-1	1.017527E+0	1.044020E+0	1.053899E+0	9.492376E-1	1.035125E+0	1.027630E+0	1.019630E+0	9.594666E-1	1.077159E+0	1.064785E+0	1.074236E+0	1.051985E+0	1.040264E+0	9.931116E-1	1.076455E+0	9.608038E-1	1.053383E+0	1.049187E+0	1.086738E+0	9.435690E-1	1.055824E+0	1.068893E+0	1.050664E+0	9.871542E-1	1.032027E+0	1.055022E+0	1.011782E+0	9.750023E-1	1.017584E+0	1.073251E+0	1.023284E+0	9.633434E-1	1.084892E+0	1.053303E+0	1.026722E+0	9.836822E-1	1.085674E+0	1.055363E+0	1.040165E+0	9.685400E-1	1.072317E+0	1.073369E+0
5.557600E+2	1.034245E+0	1.062428E+0	1.032863E+0	1.045464E+0	1.019402E+0	9.984708E-1	1.080432E+0	1.040222E+0	1.053438E+0	1.044573E+0	1.005341E+0	1.048487E+0	1.010246E+0	1.020374E+0	9.070854E-1	9.369512E-1	1.049029E+0	1.063873E+0	9.458797E-1	9.109797E-1	1.053560E+0	1.048042E+0	9.299057E-1	1.016223E+0	1.070074E+0	1.026853E+0	1.005312E+0	1.011446E+0	1.010088E+0	1.055787E+0	9.394195E-1	9.848360E-1	1.024652E+0	1.065375E+0	9.377213E-1	1.046007E+0	1.033220E+0	1.024986E+0	9.281708E-1	1.007399E+0	1.046696E+0	1.021325E+0	9.788732E-1	1.010260E+0	1.021513E+0	1.027355E+0	9.183689E-1	1.067351E+0	1.010879E+0	1.032195E+0	8.770138E-1	1.060211E+0	1.037647E+0	9.959635E-1	9.652994E-1	1.047987E+0	9.944381E-1	1.072577E+0	9.478436E-1	1.031153E+0	9.998262E-1	1.027639E+0	8.435275E-1	1.075934E+0	1.081581E+0	1.004524E+0	8.789078E-1	1.018830E+0	9.850990E-1	1.026330E+0	9.175328E-1	1.051581E+0	1.064890E+0	1.040125E+0	9.819109E-1	1.010339E+0	1.065555E+0	9.912552E-1	8.707127E-1	1.029088E+0	1.038168E+0	1.016165E+0	9.092233E-1	1.012486E+0	1.063745E+0	9.984539E-1	9.171028E-1	1.069031E+0	9.939197E-1	1.033735E+0	9.948683E-1	1.037274E+0	1.003907E+0	1.024440E+0	7.937696E-1	1.012512E+0	1.045325E+0	1.040514E+0	8.800813E-1	1.081643E+0	1.049155E+0	9.893478E-1	9.638697E-1	9.892516E-1	1.010577E+0	1.007085E+0	9.621920E-1	1.009143E+0	1.054613E+0	1.020378E+0	8.917920E-1	1.005249E+0	1.016508E+0	1.028770E+0	8.944583E-1	1.013639E+0	1.026984E+0	1.010040E+0	9.703665E-1	1.047367E+0	1.029941E+0	1.034263E+0	1.023416E+0	1.007528E+0	1.002087E+0	1.032055E+0	8.683455E-1	1.079636E+0	1.064038E+0	1.039410E+0	9.226573E-1	1.011876E+0	1.071938E+0	1.056785E+0	9.390675E-1	1.025539E+0	1.020798E+0	1.038213E+0	1.013715E+0	1.024840E+0	1.028952E+0	1.022364E+0	9.372501E-1	1.008306E+0	1.044298E+0	1.012246E+0	9.472265E-1	9.979603E-1	1.003661E+0	1.025833E+0	9.710309E-1	1.012325E+0	1.053047E+0	1.050021E+0	9.680863E-1	1.004667E+0	1.020789E+0	1.063701E+0	8.981868E-1	1.052363E+0	1.042766E+0	1.021700E+0	8.941877E-1	1.039162E+0	1.027868E+0	1.070246E+0	9.769559E-1	1.029200E+0	1.068894E+0
5.560190E+2	1.026823E+0	1.012570E+0	9.802626E-1	1.026454E+0	9.932296E-1	9.877698E-1	9.660776E-1	1.005028E+0	9.848487E-1	9.931687E-1	1.030710E+0	9.887087E-1	9.824465E-1	1.004657E+0	9.771623E-1	9.715527E-1	1.041402E+0	1.020960E+0	1.019701E+0	9.762158E-1	1.012367E+0	1.001176E+0	1.010300E+0	1.009125E+0	9.726917E-1	9.795823E-1	9.956715E-1	1.039796E+0	1.015521E+0	1.001533E+0	9.516856E-1	9.655354E-1	1.011324E+0	1.020758E+0	9.123613E-1	1.064289E+0	1.037845E+0	9.727662E-1	9.465351E-1	1.043458E+0	9.884479E-1	9.796811E-1	9.354929E-1	1.022860E+0	1.032992E+0	9.917937E-1	8.990756E-1	9.871194E-1	1.002092E+0	9.969204E-1	8.492428E-1	1.029302E+0	9.663469E-1	9.831799E-1	9.339368E-1	1.023454E+0	1.043554E+0	9.891939E-1	9.398632E-1	1.007491E+0	1.042505E+0	9.737973E-1	8.330850E-1	1.000918E+0	1.007645E+0	9.546700E-1	8.957033E-1	9.419997E-1	9.901000E-1	1.026946E+0	9.862002E-1	1.030844E+0	1.001820E+0	1.015213E+0	9.357453E-1	1.004928E+0	9.918836E-1	1.018319E+0	8.562834E-1	9.797267E-1	1.054823E+0	1.012609E+0	8.524295E-1	1.012486E+0	1.058841E+0	1.024834E+0	8.556475E-1	1.034922E+0	1.006256E+0	9.925242E-1	9.811528E-1	1.068752E+0	1.018493E+0	9.723465E-1	8.135364E-1	9.592832E-1	9.997969E-1	9.860185E-1	8.624392E-1	9.737467E-1	9.932410E-1	1.071187E+0	8.830562E-1	1.001453E+0	9.696604E-1	9.882520E-1	9.412819E-1	1.038627E+0	9.667652E-1	1.019208E+0	8.652552E-1	9.090914E-1	9.899982E-1	9.881410E-1	8.563313E-1	9.944022E-1	1.024869E+0	1.010040E+0	9.248764E-1	9.644754E-1	9.522434E-1	1.008793E+0	9.744305E-1	9.923686E-1	1.010718E+0	1.002732E+0	8.612703E-1	9.876219E-1	1.001838E+0	1.045446E+0	8.983901E-1	9.907405E-1	1.017783E+0	1.032950E+0	9.297954E-1	9.928060E-1	9.947782E-1	1.079601E+0	9.935737E-1	1.031150E+0	9.514061E-1	1.075818E+0	9.086030E-1	9.958936E-1	9.926170E-1	1.020523E+0	9.246712E-1	9.603866E-1	9.795871E-1	1.003547E+0	9.499467E-1	1.003494E+0	1.025395E+0	1.076264E+0	9.639363E-1	1.007706E+0	9.901856E-1	1.020634E+0	8.840803E-1	1.057917E+0	1.022933E+0	1.027977E+0	9.118512E-1	1.049733E+0	1.032451E+0	1.041391E+0	9.061214E-1	9.765029E-1	9.681908E-1
5.565140E+2	1.001590E+0	9.861733E-1	9.634308E-1	9.567492E-1	9.585691E-1	9.536597E-1	9.717015E-1	9.861735E-1	9.924697E-1	9.901804E-1	9.926564E-1	9.528420E-1	9.451945E-1	9.359667E-1	9.853734E-1	1.004035E+0	1.001882E+0	1.029658E+0	9.865112E-1	9.728181E-1	9.530225E-1	1.012576E+0	9.694651E-1	9.639595E-1	9.416732E-1	9.834752E-1	9.219866E-1	9.498148E-1	9.917549E-1	9.657610E-1	9.709614E-1	9.454930E-1	8.871630E-1	9.707151E-1	9.691196E-1	9.918631E-1	1.014723E+0	9.683623E-1	9.743984E-1	9.654396E-1	9.267743E-1	9.880104E-1	9.703281E-1	9.384392E-1	9.972024E-1	9.240916E-1	9.291501E-1	1.014627E+0	9.647487E-1	9.799363E-1	9.399238E-1	1.001204E+0	9.558623E-1	9.939453E-1	9.320923E-1	9.850826E-1	9.866506E-1	9.135543E-1	9.145927E-1	9.883065E-1	9.961677E-1	1.010480E+0	8.371458E-1	1.020208E+0	1.021024E+0	9.611228E-1	8.258977E-1	9.786529E-1	9.658090E-1	9.770164E-1	9.245159E-1	1.000348E+0	1.009465E+0	9.261564E-1	9.654229E-1	1.011692E+0	1.003746E+0	1.023474E+0	8.360821E-1	9.442487E-1	1.005551E+0	1.017350E+0	8.395712E-1	1.013143E+0	1.005604E+0	9.761331E-1	8.532838E-1	9.926005E-1	9.908356E-1	9.349594E-1	9.315169E-1	9.589284E-1	9.844593E-1	9.445242E-1	7.918564E-1	9.599576E-1	9.606710E-1	1.001588E+0	7.986991E-1	9.605210E-1	1.009729E+0	1.003897E+0	9.016612E-1	9.953521E-1	9.261456E-1	9.863689E-1	8.845269E-1	8.955210E-1	9.467718E-1	9.864709E-1	8.294875E-1	9.497434E-1	9.927170E-1	9.793067E-1	8.137826E-1	1.039288E+0	9.586186E-1	9.958606E-1	9.303354E-1	9.844838E-1	9.992538E-1	9.953505E-1	9.555895E-1	9.656592E-1	1.024661E+0	9.644841E-1	8.836759E-1	9.684521E-1	9.618019E-1	9.669716E-1	9.030126E-1	9.794682E-1	1.017080E+0	9.887834E-1	8.797245E-1	1.008543E+0	9.854856E-1	9.868611E-1	1.017072E+0	1.015024E+0	9.735617E-1	1.010909E+0	8.926884E-1	9.593096E-1	8.885561E-1	9.460303E-1	8.685882E-1	9.378420E-1	9.764812E-1	9.710752E-1	8.817328E-1	9.742820E-1	1.047122E+0	9.892890E-1	8.747158E-1	9.765549E-1	9.783190E-1	9.914812E-1	9.096059E-1	9.738183E-1	9.727294E-1	9.394730E-1	8.606276E-1	9.693946E-1	9.846630E-1	9.836882E-1	8.843804E-1	9.501548E-1	1.011829E+0
5.570220E+2	9.652248E-1	9.722426E-1	9.802629E-1	1.001811E+0	1.054770E+0	1.002484E+0	9.910730E-1	9.956010E-1	1.005807E+0	9.901801E-1	1.000668E+0	1.007971E+0	1.020809E+0	9.749685E-1	9.317220E-1	1.008978E+0	9.900950E-1	9.983430E-1	9.699143E-1	9.599070E-1	9.956114E-1	1.033475E+0	9.873301E-1	1.070421E+0	9.597073E-1	9.834752E-1	9.715693E-1	9.886422E-1	1.003298E+0	1.039690E+0	9.896533E-1	1.033828E+0	9.580119E-1	1.009905E+0	1.028898E+0	9.623303E-1	1.058984E+0	9.973037E-1	9.592005E-1	1.005432E+0	1.015174E+0	1.010434E+0	1.021596E+0	9.428494E-1	9.742423E-1	1.008206E+0	1.025616E+0	1.044427E+0	1.014540E+0	9.864686E-1	1.033438E+0	1.050376E+0	1.024366E+0	9.737605E-1	1.020031E+0	1.040439E+0	1.021991E+0	9.826425E-1	1.005700E+0	9.537733E-1	9.717797E-1	1.095681E+0	9.891426E-1	1.037354E+0	9.991957E-1	9.546712E-1	1.008021E+0	1.025879E+0	9.450908E-1	1.012153E+0	1.005404E+0	9.503353E-1	1.008191E+0	1.065035E+0	9.746560E-1	9.785484E-1	1.023724E+0	1.017675E+0	8.672497E-1	9.797265E-1	9.937542E-1	1.008463E+0	8.690387E-1	1.016429E+0	1.053938E+0	1.024834E+0	8.733749E-1	1.044397E+0	1.011191E+0	1.051397E+0	9.857250E-1	9.911060E-1	9.905369E-1	9.735307E-1	9.053561E-1	1.013860E+0	1.019716E+0	9.704473E-1	8.277235E-1	1.005768E+0	1.045571E+0	1.038452E+0	9.092191E-1	9.967076E-1	1.019020E+0	1.010851E+0	9.801140E-1	1.051572E+0	9.831231E-1	1.050192E+0	8.831390E-1	9.708511E-1	1.006312E+0	9.745959E-1	8.541205E-1	1.032163E+0	1.015707E+0	1.041483E+0	9.442855E-1	9.809107E-1	9.659546E-1	1.054073E+0	9.807107E-1	1.026297E+0	9.987671E-1	9.836084E-1	8.854449E-1	1.020594E+0	1.047595E+0	1.013452E+0	8.816343E-1	1.008353E+0	9.769916E-1	1.021733E+0	9.236138E-1	9.858813E-1	9.662802E-1	1.046644E+0	1.012373E+0	1.010817E+0	1.002886E+0	9.720908E-1	9.289740E-1	1.027252E+0	9.870297E-1	1.022297E+0	9.441782E-1	9.911968E-1	1.056468E+0	1.000364E+0	9.580088E-1	1.016402E+0	9.937923E-1	9.855400E-1	1.007509E+0	9.902308E-1	9.470914E-1	9.762423E-1	8.793779E-1	1.013488E+0	9.634319E-1	1.022956E+0	9.177392E-1	1.055371E+0	1.033106E+0	1.008243E+0	9.846708E-1	9.565418E-1	9.592396E-1
5.575420E+2	9.986223E-1	1.018436E+0	1.058111E+0	1.039831E+0	1.019402E+0	9.529908E-1	1.034190E+0	1.006913E+0	1.021684E+0	1.048758E+0	1.020028E+0	9.913655E-1	9.918992E-1	1.004657E+0	9.798989E-1	9.849691E-1	9.970284E-1	1.043576E+0	9.773531E-1	1.021066E+0	9.865347E-1	1.013209E+0	1.019870E+0	1.019449E+0	9.532150E-1	1.033526E+0	9.908509E-1	9.855611E-1	1.009409E+0	1.034324E+0	1.001334E+0	1.023436E+0	1.056218E+0	9.906117E-1	1.024671E+0	1.021396E+0	1.029256E+0	9.853493E-1	9.611002E-1	1.013956E+0	9.720014E-1	9.886510E-1	1.026855E+0	9.762401E-1	9.452052E-1	1.007522E+0	1.034128E+0	1.049776E+0	1.010147E+0	1.041993E+0	9.523925E-1	1.034922E+0	1.029259E+0	9.677051E-1	9.622245E-1	1.015277E+0	1.024985E+0	9.945548E-1	9.711191E-1	9.454596E-1	9.918999E-1	9.974631E-1	9.763795E-1	1.062360E+0	1.017503E+0	1.023879E+0	9.959510E-1	9.920451E-1	1.006532E+0	1.003523E+0	1.034500E+0	1.001568E+0	9.897158E-1	9.747330E-1	1.004334E+0	9.751667E-1	1.019978E+0	1.012519E+0	1.053677E+0	9.889818E-1	9.895907E-1	1.008463E+0	1.008342E+0	9.664848E-1	9.404580E-1	1.007247E+0	9.891946E-1	9.957590E-1	9.562921E-1	9.938325E-1	9.693971E-1	9.981010E-1	9.619724E-1	9.764907E-1	8.128980E-1	1.000385E+0	9.926831E-1	1.005481E+0	8.430895E-1	9.876691E-1	1.034818E+0	1.005109E+0	9.266611E-1	1.050257E+0	1.019670E+0	1.006457E+0	1.005206E+0	1.040066E+0	9.903930E-1	9.946548E-1	8.554476E-1	9.763235E-1	1.029424E+0	1.022880E+0	8.823015E-1	9.580663E-1	9.529805E-1	1.010041E+0	9.721857E-1	9.916294E-1	9.581194E-1	9.960582E-1	9.543336E-1	9.844279E-1	9.941193E-1	1.007194E+0	8.671665E-1	9.845545E-1	1.012563E+0	1.029148E+0	9.163017E-1	9.491748E-1	1.029037E+0	1.005609E+0	9.718297E-1	9.928060E-1	9.867241E-1	1.020584E+0	9.606755E-1	9.568303E-1	9.898530E-1	1.035728E+0	9.143328E-1	1.042931E+0	1.006585E+0	9.726349E-1	9.246711E-1	9.964576E-1	9.912357E-1	1.018192E+0	9.375444E-1	9.742820E-1	1.035929E+0	1.032027E+0	9.348883E-1	9.674372E-1	1.049518E+0	1.026598E+0	9.223684E-1	1.006347E+0	1.019834E+0	1.014168E+0	9.430565E-1	1.030706E+0	9.964459E-1	1.046917E+0	9.482015E-1	9.876811E-1	9.928074E-1
5.580060E+2	1.012723E+0	9.927726E-1	9.767560E-1	9.701268E-1	9.953521E-1	1.042615E+0	9.979468E-1	1.010684E+0	9.969153E-1	1.006917E+0	9.986646E-1	1.005978E+0	1.002462E+0	9.691471E-1	1.012201E+0	1.004741E+0	9.699880E-1	1.021539E+0	9.784993E-1	1.004078E+0	9.907241E-1	1.019542E+0	9.892446E-1	1.023320E+0	9.957752E-1	1.004052E+0	9.984260E-1	1.027470E+0	9.985454E-1	9.836471E-1	9.779706E-1	9.788972E-1	9.867722E-1	9.767443E-1	9.938752E-1	9.960824E-1	1.036523E+0	9.979328E-1	9.845304E-1	9.667511E-1	9.891334E-1	1.014278E+0	1.013709E+0	9.730894E-1	9.904495E-1	1.009574E+0	1.031290E+0	1.036786E+0	9.991636E-1	1.019130E+0	1.015303E+0	1.006121E+0	9.754344E-1	9.683775E-1	9.892825E-1	9.800502E-1	1.003423E+0	9.903854E-1	9.671288E-1	9.908642E-1	9.772668E-1	9.927322E-1	1.027431E+0	1.017351E+0	9.829998E-1	9.998313E-1	1.007498E+0	9.638505E-1	1.028679E+0	1.018933E+0	1.020533E+0	1.007667E+0	1.012013E+0	1.027047E+0	9.977388E-1	9.582566E-1	9.806461E-1	9.918987E-1	9.919197E-1	9.681580E-1	1.009022E+0	9.658089E-1	1.022273E+0	1.014457E+0	9.663763E-1	1.018070E+0	9.891959E-1	1.049449E+0	9.828165E-1	9.951407E-1	9.654786E-1	1.054062E+0	9.771661E-1	1.009049E+0	9.627439E-1	1.011839E+0	1.053151E+0	9.643305E-1	9.956098E-1	9.967185E-1	1.025499E+0	1.001472E+0	9.760800E-1	9.939967E-1	9.930409E-1	1.025917E+0	9.872835E-1	1.017773E+0	9.958458E-1	9.905626E-1	9.189063E-1	9.755416E-1	1.037580E+0	1.014048E+0	9.137985E-1	9.573537E-1	1.013593E+0	1.021754E+0	9.576293E-1	1.008779E+0	1.004477E+0	9.705880E-1	9.398886E-1	9.930907E-1	9.821685E-1	1.015481E+0	8.052563E-1	1.020594E+0	1.006843E+0	1.023715E+0	8.903012E-1	9.681963E-1	1.014267E+0	9.901852E-1	8.735432E-1	1.023022E+0	9.359234E-1	9.631008E-1	1.033858E+0	9.610377E-1	9.768198E-1	9.542725E-1	8.901417E-1	9.952404E-1	9.884262E-1	9.856415E-1	9.502743E-1	1.017498E+0	9.857999E-1	9.736219E-1	9.288626E-1	1.006891E+0	1.012227E+0	1.030527E+0	9.355797E-1	9.894716E-1	9.783191E-1	1.051775E+0	9.169948E-1	9.849253E-1	9.882238E-1	9.758788E-1	9.330475E-1	1.016611E+0	1.016740E+0	9.615892E-1	9.313699E-1	9.876810E-1	1.015186E+0
5.585160E+2	1.038698E+0	1.028700E+0	1.006212E+0	1.023637E+0	1.013036E+0	9.857633E-1	9.710769E-1	1.010684E+0	1.025494E+0	1.013491E+0	1.016690E+0	9.933580E-1	1.001906E+0	9.906859E-1	9.886600E-1	1.013921E+0	1.033775E+0	9.919638E-1	1.032294E+0	1.002038E+0	9.753639E-1	9.872434E-1	1.007110E+0	9.723473E-1	9.589859E-1	1.010169E+0	1.004623E+0	1.006515E+0	1.018915E+0	9.919940E-1	9.779706E-1	1.020466E+0	1.014130E+0	1.017141E+0	1.001122E+0	9.742841E-1	1.029917E+0	9.878663E-1	9.674328E-1	9.674062E-1	1.003524E+0	1.002105E+0	9.512676E-1	9.737198E-1	9.607374E-1	9.863230E-1	9.881659E-1	9.512063E-1	1.013075E+0	9.845087E-1	1.035705E+0	9.667836E-1	1.014579E+0	9.973092E-1	1.029254E+0	9.913733E-1	9.866516E-1	1.036842E+0	9.970548E-1	1.006212E+0	1.003484E+0	1.009889E+0	1.014670E+0	9.751992E-1	9.907450E-1	1.030918E+0	9.854530E-1	9.835869E-1	9.765258E-1	9.936594E-1	9.879456E-1	1.003398E+0	9.922642E-1	1.033274E+0	9.753157E-1	1.040101E+0	1.008116E+0	1.030562E+0	9.636378E-1	1.012891E+0	9.888964E-1	9.847653E-1	9.869114E-1	9.835715E-1	9.656765E-1	9.781622E-1	1.011058E+0	9.515432E-1	9.673951E-1	1.015419E+0	1.017727E+0	1.019786E+0	1.028216E+0	9.972094E-1	9.818731E-1	1.015208E+0	9.898374E-1	9.915781E-1	9.939024E-1	9.904532E-1	9.760368E-1	9.814666E-1	9.911952E-1	9.729832E-1	9.852474E-1	1.012734E+0	1.007596E+0	9.839738E-1	9.806991E-1	9.876398E-1	1.025053E+0	1.001340E+0	1.027384E+0	1.001682E+0	1.055257E+0	1.052824E+0	1.004430E+0	9.921612E-1	9.873494E-1	9.952019E-1	1.004477E+0	1.059026E+0	9.964110E-1	1.002475E+0	9.947830E-1	9.880704E-1	1.021648E+0	9.845548E-1	9.703809E-1	1.007416E+0	9.896820E-1	9.822870E-1	9.931681E-1	1.019629E+0	9.563759E-1	1.007914E+0	1.012125E+0	9.968243E-1	9.700746E-1	9.736579E-1	9.676972E-1	1.026818E+0	9.194252E-1	9.985068E-1	1.015664E+0	1.030575E+0	8.832190E-1	1.006978E+0	1.054138E+0	1.036020E+0	9.809536E-1	1.011646E+0	9.931337E-1	9.847900E-1	9.784608E-1	1.021383E+0	1.032031E+0	9.292003E-1	8.558681E-1	1.042049E+0	9.522753E-1	9.959646E-1	9.477668E-1	1.001812E+0	9.984102E-1	1.003333E+0	1.019737E+0	1.024410E+0	1.001757E+0
5.590040E+2	9.667083E-1	9.795748E-1	1.006913E+0	1.018005E+0	1.003840E+0	1.013185E+0	1.030441E+0	1.017597E+0	9.753219E-1	1.005123E+0	9.786363E-1	1.006642E+0	9.563147E-1	1.034345E+0	9.864700E-1	9.722589E-1	1.011589E+0	9.658686E-1	1.013408E+0	9.714595E-1	9.823458E-1	9.872430E-1	9.720175E-1	9.594436E-1	1.069353E+0	1.018512E+0	1.030103E+0	1.016992E+0	1.008051E+0	1.002129E+0	9.727134E-1	9.937436E-1	9.902797E-1	9.857883E-1	1.014405E+0	1.033350E+0	1.002831E+0	1.004853E+0	1.038357E+0	1.017234E+0	1.029564E+0	1.007871E+0	9.617844E-1	9.863200E-1	9.870736E-1	9.979485E-1	1.000649E+0	9.924681E-1	1.018201E+0	9.838563E-1	9.982996E-1	1.026493E+0	1.006890E+0	1.002019E+0	1.012650E+0	9.769052E-1	9.890476E-1	9.790691E-1	9.850845E-1	1.024758E+0	9.882415E-1	9.897727E-1	1.000166E+0	1.020208E+0	9.858162E-1	9.951403E-1	9.996255E-1	1.037156E+0	1.057971E+0	9.609897E-1	9.681599E-1	1.007667E+0	1.010102E+0	9.709964E-1	1.020822E+0	9.717847E-1	9.937563E-1	9.964102E-1	1.030591E+0	1.010578E+0	9.736292E-1	1.028013E+0	9.992346E-1	9.815997E-1	1.030121E+0	9.950721E-1	1.045923E+0	9.963909E-1	9.852834E-1	1.014765E+0	9.602541E-1	9.547316E-1	9.844594E-1	1.039831E+0	1.023957E+0	1.000385E+0	9.884145E-1	9.632191E-1	1.034310E+0	1.047534E+0	1.036252E+0	9.923793E-1	9.888706E-1	1.004842E+0	9.969385E-1	1.007085E+0	1.005206E+0	9.940418E-1	1.026744E+0	1.026808E+0	1.039477E+0	9.489616E-1	9.899979E-1	1.037602E+0	1.022655E+0	9.915516E-1	1.022755E+0	1.002026E+0	1.034660E+0	1.012352E+0	1.017536E+0	1.027896E+0	9.982952E-1	9.735998E-1	9.947829E-1	1.014844E+0	1.034619E+0	1.008325E+0	1.037585E+0	9.711966E-1	1.022039E+0	1.051328E+0	1.000201E+0	9.964944E-1	1.035500E+0	1.007914E+0	9.861049E-1	1.062740E+0	9.868600E-1	9.953928E-1	9.722582E-1	9.969094E-1	1.032103E+0	9.736814E-1	1.021950E+0	9.850505E-1	1.001480E+0	9.934514E-1	9.764808E-1	9.806254E-1	1.006998E+0	1.002135E+0	1.016836E+0	9.577978E-1	9.466454E-1	9.332465E-1	1.002052E+0	1.028585E+0	9.519237E-1	9.658843E-1	1.029130E+0	1.027977E+0	9.524771E-1	1.020840E+0	1.016740E+0	1.048145E+0	9.348757E-1	9.629291E-1	9.950448E-1
5.595110E+2	1.025340E+0	1.047764E+0	1.006913E+0	1.053209E+0	1.057599E+0	9.643609E-1	9.966969E-1	1.005656E+0	1.028035E+0	1.053540E+0	9.752981E-1	1.054464E+0	1.045830E+0	1.020374E+0	1.036837E+0	1.016040E+0	1.004655E+0	1.008202E+0	1.039731E+0	1.012232E+0	1.046579E+0	1.024609E+0	1.026889E+0	1.014932E+0	1.052762E+0	1.009057E+0	9.633051E-1	1.011446E+0	1.006014E+0	1.052806E+0	1.022363E+0	1.004136E+0	1.045696E+0	1.043065E+0	1.007763E+0	9.967857E-1	1.035202E+0	1.012403E+0	1.045323E+0	1.031001E+0	1.043955E+0	1.008512E+0	1.047230E+0	1.049951E+0	1.006656E+0	1.012993E+0	1.018238E+0	1.011571E+0	9.911087E-1	1.015864E+0	9.869657E-1	9.955848E-1	1.027162E+0	1.006055E+0	1.020645E+0	1.028486E+0	1.016600E+0	1.047563E+0	1.022326E+0	1.020281E+0	1.012020E+0	1.015806E+0	1.038456E+0	9.880584E-1	1.023841E+0	1.043821E+0	1.017470E+0	1.014601E+0	9.936721E-1	1.015234E+0	1.036829E+0	1.002789E+0	9.999088E-1	1.008363E+0	1.010270E+0	1.052275E+0	9.756508E-1	1.073092E+0	1.043288E+0	9.673863E-1	1.006246E+0	1.051711E+0	1.002450E+0	1.035487E+0	1.053237E+0	1.039714E+0	1.010467E+0	1.014708E+0	1.019210E+0	1.001028E+0	1.050382E+0	9.995002E-1	9.583262E-1	1.038647E+0	9.876114E-1	1.016556E+0	9.784550E-1	1.068320E+0	1.002438E+0	9.765310E-1	1.002560E+0	1.018446E+0	1.042939E+0	1.040089E+0	1.044999E+0	9.769523E-1	1.023130E+0	1.035032E+0	1.017656E+0	1.030316E+0	1.015823E+0	9.802326E-1	9.940763E-1	1.017580E+0	1.041997E+0	1.011502E+0	1.000201E+0	1.000793E+0	1.027381E+0	1.026643E+0	1.034512E+0	1.000303E+0	1.032209E+0	1.032072E+0	1.045244E+0	1.028868E+0	1.074713E+0	9.998906E-1	1.008273E+0	1.021904E+0	1.090797E+0	1.019625E+0	9.966840E-1	1.001402E+0	1.109060E+0	1.003507E+0	1.026374E+0	1.055842E+0	1.003645E+0	1.031851E+0	1.066747E+0	1.038909E+0	1.071571E+0	1.059916E+0	9.905219E-1	1.011064E+0	1.057564E+0	1.034032E+0	9.982250E-1	1.027742E+0	1.057229E+0	1.038820E+0	1.026712E+0	1.012532E+0	1.064223E+0	1.065451E+0	1.025785E+0	1.014009E+0	1.068803E+0	1.006347E+0	1.025412E+0	1.015424E+0	1.061990E+0	9.848988E-1	1.041616E+0	1.044462E+0	1.059713E+0	1.018022E+0	9.737853E-1
5.600470E+2	1.003817E+0	9.883734E-1	1.020239E+0	1.002515E+0	1.008792E+0	1.042614E+0	1.031066E+0	1.006285E+0	1.033116E+0	9.883867E-1	1.046066E+0	1.035867E+0	1.027482E+0	1.041914E+0	1.035195E+0	1.015333E+0	1.049029E+0	1.078950E+0	9.956672E-1	1.043490E+0	1.049372E+0	1.028409E+0	1.023061E+0	1.056871E+0	9.979387E-1	1.024073E+0	1.086572E+0	9.978866E-1	1.041323E+0	1.012861E+0	1.027036E+0	1.033086E+0	1.005712E+0	1.025581E+0	1.020444E+0	1.035460E+0	9.506416E-1	1.021841E+0	1.019993E+0	1.045425E+0	1.036417E+0	1.024528E+0	1.056432E+0	1.064441E+0	1.076886E+0	1.017780E+0	1.021644E+0	1.099443E+0	1.013807E+0	1.026969E+0	1.031737E+0	1.025790E+0	1.034152E+0	1.038350E+0	1.018185E+0	1.039181E+0	1.033371E+0	9.802603E-1	1.052252E+0	1.025397E+0	1.049821E+0	1.004564E+0	1.008287E+0	1.020923E+0	1.055527E+0	1.019774E+0	1.056835E+0	1.061826E+0	1.043682E+0	1.052836E+0	1.025189E+0	1.045482E+0	1.005643E+0	1.009609E+0	9.904842E-1	1.061069E+0	1.066180E+0	1.006076E+0	1.050792E+0	1.011349E+0	1.049272E+0	1.032160E+0	1.036740E+0	1.028258E+0	1.009807E+0	1.048507E+0	1.068377E+0	1.031131E+0	1.082746E+0	9.872909E-1	1.024911E+0	1.022584E+0	1.085952E+0	1.022664E+0	1.052650E+0	1.013861E+0	1.054573E+0	1.022164E+0	1.024064E+0	1.004376E+0	1.024066E+0	1.005716E+0	1.045848E+0	1.033988E+0	1.050844E+0	9.926466E-1	9.819065E-1	1.034313E+0	1.035832E+0	1.023885E+0	1.042359E+0	1.009939E+0	1.064770E+0	9.787177E-1	1.009945E+0	1.069924E+0	1.012183E+0	1.042100E+0	9.885626E-1	9.959166E-1	1.025371E+0	9.903983E-1	1.030325E+0	1.040734E+0	1.011382E+0	1.026318E+0	1.028723E+0	1.002191E+0	1.005413E+0	1.036996E+0	1.009905E+0	1.033716E+0	1.014970E+0	1.084126E+0	1.034264E+0	1.024910E+0	1.037525E+0	9.922258E-1	1.025801E+0	1.018530E+0	1.043940E+0	1.002636E+0	1.038469E+0	9.945873E-1	1.046393E+0	1.027027E+0	1.081946E+0	1.012990E+0	1.021522E+0	1.011825E+0	1.011960E+0	1.000097E+0	1.017494E+0	1.030528E+0	1.085663E+0	1.066971E+0	1.009547E+0	1.019971E+0	1.097015E+0	1.059504E+0	1.026652E+0	1.014168E+0	1.051391E+0	1.018021E+0	1.015430E+0	1.005788E+0	1.000101E+0	1.038782E+0	1.046516E+0
5.605210E+2	1.029792E+0	9.942391E-1	1.054604E+0	1.015892E+0	9.649352E-1	9.978025E-1	1.005445E+0	1.026396E+0	1.015968E+0	1.011101E+0	1.028040E+0	9.541702E-1	1.018587E+0	9.767152E-1	9.733297E-1	1.047110E+0	9.866291E-1	1.001822E+0	1.016268E+0	1.017668E+0	1.010274E+0	1.030942E+0	1.015404E+0	1.027192E+0	1.000103E+0	9.951529E-1	9.887849E-1	9.695371E-1	1.005335E+0	1.021804E+0	1.038134E+0	1.025663E+0	1.017637E+0	1.015332E+0	9.944794E-1	1.005926E+0	1.010098E+0	1.010516E+0	9.933964E-1	1.004777E+0	9.685758E-1	9.918543E-1	1.009765E+0	1.003960E+0	1.024213E+0	1.047186E+0	9.881639E-1	1.006986E+0	1.032845E+0	1.004106E+0	9.852649E-1	1.048269E+0	9.992013E-1	1.010092E+0	9.775984E-1	9.875989E-1	1.030375E+0	9.796652E-1	1.034961E+0	1.002376E+0	1.010190E+0	1.034146E+0	9.682576E-1	1.017350E+0	1.006237E+0	9.734402E-1	1.003823E+0	9.962742E-1	9.615230E-1	1.006604E+0	1.015878E+0	1.026575E+0	1.033673E+0	9.809608E-1	1.022141E+0	9.650210E-1	1.013735E+0	1.005431E+0	9.717186E-1	1.028316E+0	1.007633E+0	1.006686E+0	1.008878E+0	9.927707E-1	1.017512E+0	9.808677E-1	9.767851E-1	9.989174E-1	1.050053E+0	1.040931E+0	1.051689E+0	1.040072E+0	1.019708E+0	1.003721E+0	1.015668E+0	1.023294E+0	9.877031E-1	1.003257E+0	9.956097E-1	1.017601E+0	1.018331E+0	1.039665E+0	1.047592E+0	1.013654E+0	9.845983E-1	1.022151E+0	1.049415E+0	9.652759E-1	9.728232E-1	1.006347E+0	9.754406E-1	1.081863E+0	9.539716E-1	1.027002E+0	9.911591E-1	9.944022E-1	9.910389E-1	9.890788E-1	1.011004E+0	9.909146E-1	1.004477E+0	1.008793E+0	1.041630E+0	9.837061E-1	1.035284E+0	9.447229E-1	1.071766E+0	1.009859E+0	1.003983E+0	9.965508E-1	1.000660E+0	1.006945E+0	9.755852E-1	9.761645E-1	1.016955E+0	9.896581E-1	1.023277E+0	1.006788E+0	1.010358E+0	1.024840E+0	1.011358E+0	1.025545E+0	1.016188E+0	9.919740E-1	1.042203E+0	1.005152E+0	1.079509E+0	1.007729E+0	9.741515E-1	1.001637E+0	1.044827E+0	9.756404E-1	9.746994E-1	1.026028E+0	1.044165E+0	9.735155E-1	9.614560E-1	1.008045E+0	1.084253E+0	9.746120E-1	9.950419E-1	1.013540E+0	1.023131E+0	9.792611E-1	9.709158E-1	1.002718E+0	1.056207E+0	9.868826E-1	9.737854E-1
5.610010E+2	9.229220E-1	9.685763E-1	9.283639E-1	9.166160E-1	9.564468E-1	9.536594E-1	9.673268E-1	9.226971E-1	9.251497E-1	9.214413E-1	9.566048E-1	9.495211E-1	9.474185E-1	9.668190E-1	9.673077E-1	9.305964E-1	9.443348E-1	9.316536E-1	9.241332E-1	9.490340E-1	9.453423E-1	9.220121E-1	9.662745E-1	9.458936E-1	9.250824E-1	9.389847E-1	9.281851E-1	9.701531E-1	9.218161E-1	9.347584E-1	9.838127E-1	9.440086E-1	9.397736E-1	9.363478E-1	9.679117E-1	9.581116E-1	9.347863E-1	9.645876E-1	9.509680E-1	9.674064E-1	9.288299E-1	9.508513E-1	9.598122E-1	9.485195E-1	9.539842E-1	9.281944E-1	9.518483E-1	9.015387E-1	9.317992E-1	9.655656E-1	9.467249E-1	9.309580E-1	9.425800E-1	9.777967E-1	9.523852E-1	9.964053E-1	9.405320E-1	9.862149E-1	9.411936E-1	9.301113E-1	9.589760E-1	9.530895E-1	9.427316E-1	9.609102E-1	9.548339E-1	9.370758E-1	9.292951E-1	9.427045E-1	9.379464E-1	9.517433E-1	9.454648E-1	9.064213E-1	9.463963E-1	9.697506E-1	9.832290E-1	9.514931E-1	9.619156E-1	8.965296E-1	9.480538E-1	1.001322E+0	9.653022E-1	9.308567E-1	9.435133E-1	9.638564E-1	9.572696E-1	9.396076E-1	8.981936E-1	9.578595E-1	9.124958E-1	9.454257E-1	9.295577E-1	9.092634E-1	9.461716E-1	8.888795E-1	9.754967E-1	9.188566E-1	9.478663E-1	9.871309E-1	9.540654E-1	9.667860E-1	9.172558E-1	9.608556E-1	9.074751E-1	9.404473E-1	9.443314E-1	9.625143E-1	9.454635E-1	9.695913E-1	9.703999E-1	9.344416E-1	9.829401E-1	1.002122E+0	9.322200E-1	9.233682E-1	9.651886E-1	9.224429E-1	9.557996E-1	9.520875E-1	9.934146E-1	9.701919E-1	9.091503E-1	9.429957E-1	9.612419E-1	9.743223E-1	9.363558E-1	9.816957E-1	9.632751E-1	9.745863E-1	9.675213E-1	9.422210E-1	9.966155E-1	9.379026E-1	1.005124E+0	9.319982E-1	9.743022E-1	9.430753E-1	9.786708E-1	9.224792E-1	9.694034E-1	9.946913E-1	9.611802E-1	9.549092E-1	1.032103E+0	9.860941E-1	8.948419E-1	9.554897E-1	9.460075E-1	9.273213E-1	9.896830E-1	9.685286E-1	9.691704E-1	9.647708E-1	9.588975E-1	9.577977E-1	9.452623E-1	9.499619E-1	9.908101E-1	9.484143E-1	1.025142E+0	9.666783E-1	9.832654E-1	9.570479E-1	1.030196E+0	9.785563E-1	9.401475E-1	9.339647E-1	9.979965E-1	9.812936E-1	9.939254E-1
