Photon Energy (eV)	#1	#2	#3	#4	#5	#6	#7	#8	#9	#10	#11	#12	#13	#14	#15	#16	#17	#18	#19	#20	#21	#22	#23	#24	#25	#26	#27	#28	#29	#30	#31	#32	#33	#34	#35	#36	#37	#38	#39	#40	#41	#42	#43	#44	#45	#46	#47	#48	#49	#50	#51	#52	#53	#54	#55	#56	#57	#58	#59	#60	#61	#62	#63	#64	#65	#66	#67	#68	#69	#70	#71	#72	#73	#74	#75	#76	#77	#78	#79	#80	#81	#82	#83	#84	#85	#86	#87	#88	#89	#90	#91	#92	#93	#94	#95	#96	#97	#98	#99	#100	#101	#102	#103	#104	#105	#106	#107	#108	#109	#110	#111	#112	#113	#114	#115	#116	#117	#118	#119	#120	#121	#122	#123	#124	#125	#126	#127	#128	#129	#130	#131	#132	#133	#134	#135	#136	#137	#138	#139	#140	#141	#142	#143	#144	#145	#146	#147	#148	#149	#150	#151	#152	#153	#154	#155	#156	#157	#158	#159	#160	#161	#162	#163	#164	#165	#166	#167	#168	#169	#170	
2.790040E+2	-6.594357E-3	-5.300249E-3	-6.290075E-4	-1.977170E-3	-1.926347E-3	-1.748720E-3	3.911818E-3	-1.186729E-3	1.173763E-3	-7.324883E-3	5.983858E-3	-3.180821E-3	-9.825014E-3	-3.114147E-3	-5.803189E-3	1.125236E-3	-4.327004E-4	-9.798864E-4	-4.738084E-3	5.742634E-3	-2.749426E-3	-1.085231E-4	-8.838124E-3	-6.197810E-3	-1.156613E-2	-5.550838E-3	-3.608275E-3	-3.585489E-3	5.826722E-5	-1.619808E-4	-5.427764E-3	-2.355384E-3	-1.213281E-2	-1.394499E-3	4.703467E-4	-7.023162E-4	-2.612423E-3	5.137686E-4	1.021220E-4	-3.981784E-3	-4.331068E-3	3.706969E-3	-4.695831E-3	-1.148125E-3	-7.468134E-4	1.390893E-3	-2.502045E-3	-1.427725E-3	-3.831699E-3	-7.848327E-3	-7.464848E-5	2.015893E-3	-4.287937E-4	-5.614491E-3	-6.980428E-3	1.222092E-4	-5.354005E-3	2.241803E-3	3.788217E-3	-8.894019E-4	-5.649205E-3	-1.681964E-3	-4.232461E-3	-8.885664E-4	1.174768E-3	3.549786E-3	-4.448822E-3	-3.215925E-3	-5.492654E-3	-5.017242E-4	-1.311718E-3	1.998797E-3	2.833262E-3	3.027998E-4	-5.743765E-3	4.499143E-3	-5.917443E-3	3.000533E-3	-4.506891E-3	-1.287507E-3	-2.824721E-3	-8.945200E-4	3.038806E-5	-1.957746E-3	-2.077436E-3	-2.132540E-3	3.090600E-3	6.982303E-4	-8.575917E-3	-6.188722E-3	-3.481102E-3	1.362260E-3	6.955807E-3	-3.687696E-3	-9.943231E-4	-8.112150E-3	3.811556E-5	-1.038406E-3	-5.654030E-3	-6.378089E-3	-2.300671E-3	-1.656814E-3	-3.323799E-3	-4.519941E-3	-1.240079E-3	-2.873321E-3	-3.819893E-3	-5.495341E-3	-7.259259E-3	-5.030329E-3	-1.312213E-3	-7.588484E-3	-2.332649E-3	3.677680E-4	-2.444930E-3	-5.686544E-3	-8.336971E-3	-3.438335E-3	-5.338933E-3	1.264943E-3	-9.809726E-3	-1.054951E-2	-1.130207E-2	-2.565262E-4	2.669588E-3	-5.649151E-4	-3.613956E-3	-3.890970E-3	-6.023422E-3	-6.954548E-3	-3.300747E-3	-5.078038E-4	-7.481183E-3	-6.129729E-3	-6.259382E-4	3.267644E-3	-4.748080E-3	-4.689200E-3	-2.546665E-3	7.722785E-3	1.580423E-3	-7.019010E-3	-3.523182E-3	-2.323394E-3	-8.301073E-3	3.524427E-3	6.475315E-3	4.849051E-4	-7.099435E-4	-3.838590E-3	2.812405E-3	-8.037254E-4	-4.011967E-3	-3.572050E-3	1.175831E-3	-3.188023E-3	-1.573091E-3	-5.949123E-3	-5.051431E-3	4.519300E-3	-1.362219E-3	-1.393252E-2	3.214904E-4	2.723507E-3	-3.958815E-3	-4.850238E-3	-6.741192E-3	-9.125113E-3	-1.089050E-2	-1.659657E-2
2.795010E+2	-3.644463E-3	5.465763E-5	-8.284158E-3	-3.338319E-3	-7.063243E-3	-3.476537E-3	-1.044468E-2	-2.573478E-3	-5.992471E-3	4.390254E-3	-4.331340E-3	-5.118256E-3	7.258308E-4	-5.532379E-3	3.269968E-4	-1.289880E-3	5.769472E-4	-6.425571E-3	-5.056594E-3	-8.811389E-3	-6.168619E-3	-2.465864E-3	-1.346919E-3	-1.115073E-3	4.921048E-3	-1.938808E-3	-2.720569E-3	-2.300312E-3	3.787199E-3	1.331328E-4	-4.561904E-3	-8.747886E-3	6.539730E-5	1.536584E-3	-8.647598E-3	-2.752876E-3	-3.613382E-3	-2.834870E-3	-4.002807E-3	-2.062836E-3	-9.689083E-3	-1.023627E-2	-7.963597E-3	-2.320992E-3	-1.941689E-3	7.309637E-3	-5.382743E-3	-5.586882E-3	-4.205676E-3	3.140214E-3	4.703943E-3	-5.428362E-3	2.535316E-3	5.863095E-3	-5.412862E-4	1.149551E-3	-8.066859E-3	-5.378281E-4	-1.060689E-3	-2.094689E-3	-4.581635E-3	-1.379607E-3	2.298212E-3	-7.025374E-3	-3.056143E-3	3.801089E-3	-3.431956E-3	-2.019596E-3	-5.797701E-3	-5.360594E-3	-4.166250E-3	3.123379E-3	-4.568699E-3	-3.799558E-3	-4.025141E-3	3.998279E-3	-7.335308E-4	-2.424296E-3	-1.654218E-3	-1.661389E-3	-9.724403E-4	2.242937E-3	-8.119008E-3	1.656556E-3	-5.739424E-3	4.691532E-3	-8.057406E-3	-4.961590E-3	-1.723143E-3	-2.923311E-3	-5.226763E-3	-1.609958E-3	-3.638603E-3	-1.407903E-3	-6.398451E-3	-4.531558E-3	-3.529342E-3	-7.092954E-3	-2.197727E-3	-4.274422E-3	-2.647995E-3	-7.041528E-3	2.409588E-3	1.315629E-3	1.550516E-3	-3.293088E-3	-5.567176E-3	-4.132667E-5	-6.105500E-3	-4.085238E-3	-4.402540E-3	-2.593692E-3	-4.357540E-3	3.355170E-3	-1.247389E-3	5.753701E-4	-4.599111E-3	2.220345E-3	-5.080909E-4	-4.993131E-3	2.352332E-3	6.857218E-4	-8.464577E-3	-4.361541E-3	-5.897217E-3	-2.919948E-3	-7.759185E-3	-4.249792E-3	1.628038E-4	-2.057491E-3	-4.448827E-3	-4.193659E-3	2.000785E-3	-4.625499E-3	-3.107727E-4	-5.014697E-3	-6.171032E-4	5.697446E-4	-6.990609E-4	-1.054329E-2	-7.369970E-3	-2.739298E-4	-1.845046E-3	-1.070154E-2	-3.884359E-3	-6.308149E-3	5.963832E-3	-5.424793E-3	-1.792861E-3	7.367462E-3	-1.045028E-2	-4.568674E-4	1.013822E-3	-4.680050E-3	-3.618995E-3	2.233692E-3	-4.269755E-3	-5.641772E-3	2.691979E-4	-6.605077E-3	1.276970E-3	-2.786531E-3	-6.360047E-3	-9.539792E-4	-6.814989E-3	8.611693E-3	4.982613E-3	5.914812E-3	9.793589E-4	1.220406E-2
2.800030E+2	-4.467672E-3	-3.223868E-3	2.154710E-3	-1.460906E-3	-4.323580E-3	5.364592E-4	-1.110376E-2	1.695335E-4	4.386238E-3	2.262370E-3	-2.358182E-3	-2.777726E-3	-6.052038E-3	5.940078E-3	9.127017E-4	-1.289896E-3	-2.307765E-3	-6.425536E-3	-7.604810E-3	-6.480670E-3	6.079297E-3	-6.808203E-3	-4.668154E-3	1.996828E-3	-1.180585E-3	-2.735562E-3	5.238329E-3	-1.479984E-3	-6.001302E-3	-2.176361E-3	-3.394342E-3	6.233454E-4	-4.312846E-3	-4.481596E-3	-4.305708E-3	-2.752880E-3	1.239860E-3	-6.935257E-3	-2.141644E-3	1.775033E-3	-1.830652E-3	-5.989529E-3	3.092678E-3	-1.530298E-3	-3.451013E-3	-1.923580E-3	-1.555955E-3	-6.220258E-3	-3.369183E-4	-3.219711E-3	5.450609E-3	8.295032E-4	-7.951416E-4	-3.459870E-3	-6.599050E-3	-6.276871E-3	7.584329E-3	-6.630173E-3	-3.333348E-4	-5.394605E-4	-1.734837E-3	-1.347478E-2	-3.941285E-3	1.847080E-3	-1.558535E-3	-7.507934E-3	-2.076127E-3	1.135521E-3	-6.428906E-3	-3.459288E-3	-3.556716E-3	-1.679827E-4	-6.102778E-3	-1.037306E-2	3.437184E-3	4.810456E-3	8.453483E-4	-3.122750E-3	-2.297701E-3	-9.815257E-4	-2.454261E-3	-6.217615E-3	-2.745772E-3	-6.375199E-3	-2.489151E-3	-8.555162E-3	-6.635775E-3	2.173301E-4	-1.355770E-4	5.720515E-3	-1.009031E-3	-4.086785E-3	-5.952910E-3	-3.439413E-3	5.004225E-4	1.998468E-3	-5.120744E-3	-2.164880E-3	-2.197764E-3	3.975348E-3	-4.338719E-5	-1.449725E-3	-6.393670E-3	3.660220E-3	3.152702E-3	2.632584E-3	1.381860E-4	-4.173129E-3	3.894050E-3	-3.425907E-3	-3.063791E-3	3.347320E-3	5.677889E-4	-4.141786E-3	-2.844078E-3	3.063573E-3	8.049758E-4	-2.004834E-4	-1.249398E-3	3.223234E-3	-2.640073E-3	-2.907605E-3	3.805732E-3	-1.070012E-2	-2.679666E-3	-1.010430E-3	-2.721923E-3	-2.231409E-3	1.318643E-2	-1.410331E-3	-7.050600E-4	5.491764E-3	3.958087E-3	-2.820431E-3	-4.512747E-3	4.205872E-4	-6.662383E-3	5.697061E-4	-2.187135E-3	-6.717763E-5	-5.831212E-3	-9.123001E-4	-3.214980E-3	-2.711786E-3	1.636555E-3	-3.182543E-3	-6.118824E-4	4.232679E-5	-7.096848E-3	-3.543110E-3	2.072311E-4	-6.859799E-3	1.013826E-3	-8.149011E-4	-5.815110E-3	5.739798E-4	-2.022533E-3	-2.348925E-3	-9.976056E-4	1.658505E-5	-8.572604E-3	-5.632295E-3	-1.567208E-4	6.163668E-3	8.306108E-3	3.297947E-5	1.967900E-3	1.573865E-2	9.049516E-3	-9.532305E-3
2.805030E+2	6.234168E-3	-2.404248E-3	-1.860249E-3	-4.277068E-3	-2.268790E-3	-3.476574E-3	2.077389E-3	7.484288E-3	-6.733787E-3	-7.667747E-3	-4.989025E-3	3.429770E-4	-1.985341E-3	-2.158127E-3	-3.187101E-3	-1.948569E-3	-3.028860E-3	-5.707453E-3	-1.234311E-3	-4.149966E-3	-4.943824E-3	1.550330E-5	-3.561091E-3	1.218829E-3	7.209182E-3	-3.532355E-3	-2.108343E-3	1.000454E-2	-6.001238E-3	-2.176333E-3	-3.978130E-3	7.317085E-3	2.254457E-3	-3.144227E-3	-5.029365E-3	-1.155069E-3	-1.186774E-3	6.797252E-4	-2.804769E-4	-5.277136E-4	2.455758E-3	2.503751E-3	-5.927004E-4	8.417365E-4	-3.451022E-3	-5.474834E-3	3.574111E-4	7.468453E-4	-4.979439E-3	-4.633024E-3	-4.255961E-3	-5.428362E-3	-1.461243E-3	8.908502E-4	8.048891E-4	4.862741E-3	5.412877E-4	7.077566E-3	-5.424728E-3	-6.760462E-3	2.535516E-3	8.881997E-4	-5.189197E-3	3.748365E-3	-3.056157E-3	-2.230400E-3	-4.787822E-3	3.501907E-3	3.670080E-3	2.244572E-3	-1.118723E-3	-2.636546E-3	-2.267589E-3	1.313191E-3	-3.346731E-3	-6.560032E-3	-3.101784E-3	5.258900E-3	-3.584569E-3	-3.701028E-3	-2.454274E-3	4.358051E-3	-4.280997E-3	-7.529901E-4	7.261590E-3	-1.931813E-3	-8.057397E-3	1.697020E-3	-1.355915E-4	-7.623216E-4	-3.060860E-4	-1.609974E-3	-5.952943E-3	6.235241E-4	-7.538833E-4	3.944562E-5	5.223565E-3	-6.388937E-3	3.061797E-3	4.800315E-3	6.077041E-4	4.142258E-4	-7.747994E-3	-1.810605E-3	-8.062834E-3	-1.811648E-3	-3.427668E-3	1.611428E-3	-6.105481E-3	-7.884802E-4	-7.080060E-3	-4.574007E-3	-3.536674E-3	1.310575E-3	-4.490542E-4	-1.083361E-3	7.560108E-3	-5.647309E-3	-5.697196E-3	-5.814786E-3	6.512674E-3	7.153767E-3	6.873278E-3	1.660190E-4	-8.310390E-3	-2.919975E-3	-5.240550E-3	-2.904225E-3	-4.721081E-3	-7.631563E-4	3.787423E-3	6.298913E-3	-2.566224E-3	1.993099E-3	-3.107770E-4	5.079429E-3	-6.662374E-3	-1.533885E-3	4.492875E-5	1.544564E-3	8.786904E-3	1.002713E-3	-2.530001E-3	3.280519E-3	-1.518268E-3	-6.308149E-3	-3.534472E-3	-6.986816E-3	-4.668447E-4	5.483611E-4	2.072441E-4	5.946049E-3	-2.071062E-3	2.277202E-3	4.121070E-5	5.739950E-4	1.722878E-3	2.261094E-3	-3.642290E-4	-7.267296E-3	1.276956E-3	5.750887E-3	-4.809173E-3	-1.630963E-4	-1.774610E-3	-7.225903E-3	-9.085958E-3	-1.232958E-2	-3.055744E-3	-5.909545E-3
2.810080E+2	4.716456E-4	-5.682758E-3	-2.663253E-3	4.171445E-3	-2.268828E-3	1.874111E-3	4.054581E-3	-7.145181E-3	-8.031120E-4	-5.539898E-3	-3.850373E-4	-2.777697E-3	6.825809E-3	3.915526E-3	6.183878E-3	-4.583255E-3	-8.654134E-4	3.627911E-3	8.958533E-3	5.114585E-4	5.677629E-4	5.598590E-3	8.671966E-4	5.108635E-3	-4.231462E-3	-1.142049E-3	-2.720554E-3	-1.214424E-2	9.904746E-4	-6.795240E-3	2.443308E-3	-7.153967E-4	-4.312820E-3	-4.694842E-4	1.483474E-3	4.437213E-3	7.913078E-3	1.851247E-3	-2.762028E-3	1.775028E-3	3.884551E-3	-7.405131E-3	6.778088E-3	-6.274401E-3	-4.205674E-3	-3.344060E-3	3.546433E-3	2.646974E-3	1.210589E-3	5.966837E-3	2.240024E-4	-2.299434E-3	-6.123813E-3	-9.737155E-4	-2.560525E-3	-8.504799E-3	2.888936E-3	-5.107109E-3	-1.788035E-3	1.015764E-3	1.112039E-3	-3.647455E-3	6.041928E-3	-1.955393E-3	-8.297967E-3	-2.230382E-3	3.347204E-3	-8.329901E-3	4.301328E-3	1.610814E-3	-1.728231E-3	-2.636506E-3	-2.267570E-3	1.313151E-3	-5.381937E-3	-3.311311E-3	-2.312381E-3	-3.122763E-3	-3.673389E-4	1.058051E-3	-7.640660E-3	3.653007E-3	4.162621E-3	1.656551E-3	1.110636E-4	5.895818E-3	-5.214161E-3	-1.088041E-2	5.420713E-3	-7.623655E-4	-2.414930E-3	4.169390E-3	-1.324309E-3	5.363641E-3	-1.267419E-4	-6.135606E-4	-1.142203E-3	9.099379E-3	1.559114E-3	5.625322E-3	-6.945539E-4	3.520780E-3	-1.653442E-3	-9.626020E-3	-4.057291E-3	-1.070916E-3	2.277655E-3	7.850429E-4	-2.259461E-3	5.302592E-4	-3.733213E-3	2.027087E-3	-2.531326E-4	6.289996E-4	-9.230766E-3	-1.083411E-3	1.480503E-3	-4.436923E-3	4.680978E-3	-4.171446E-3	1.520227E-3	2.841782E-3	-6.930781E-3	8.315593E-3	5.379251E-4	3.445064E-3	2.315266E-3	4.597486E-4	2.604699E-3	3.119934E-3	4.536163E-3	-9.036415E-3	-5.828361E-3	-4.136679E-4	-3.107727E-4	-1.132349E-3	1.385020E-4	-8.326754E-4	-9.627231E-3	-2.484729E-3	1.093157E-3	2.917692E-3	8.946859E-4	4.612142E-3	4.791402E-3	-4.745336E-3	-2.803824E-3	-6.205800E-3	-4.668932E-4	5.483528E-4	-4.766273E-3	4.345352E-3	2.426138E-4	7.311436E-4	2.237267E-3	-1.915594E-3	4.719277E-3	4.895418E-3	-3.531251E-3	-1.307799E-3	2.792311E-3	5.039402E-3	3.720393E-3	2.209461E-3	-8.075110E-3	-4.586306E-3	3.977748E-3	-3.909079E-3	5.014450E-3	1.582675E-2
2.815020E+2	-3.515691E-4	4.152778E-3	5.486767E-4	4.171456E-3	5.950271E-3	7.224812E-3	-6.490339E-3	-2.573484E-3	3.644918E-3	1.006455E-2	-3.673622E-3	-1.997587E-3	7.503604E-3	-2.832975E-3	9.126981E-4	4.638128E-3	2.019246E-3	6.500328E-3	4.499168E-3	2.065270E-3	4.854514E-3	1.256206E-3	8.063185E-3	-6.560844E-3	1.870208E-3	5.232143E-3	4.626111E-3	7.543567E-3	3.088052E-3	6.291642E-3	1.859541E-3	7.317138E-3	4.443552E-3	-4.694393E-4	3.618153E-5	4.427172E-4	1.239868E-3	-2.834874E-3	4.682644E-3	1.098583E-2	-1.116233E-3	6.042653E-3	-2.066934E-3	-7.065076E-3	5.604946E-3	-6.185063E-3	-2.803544E-4	3.913750E-3	3.531873E-3	3.135910E-4	-1.172253E-2	2.393958E-3	-1.461239E-3	2.693372E-4	2.151032E-3	7.090642E-3	3.671470E-3	-5.868601E-3	1.121290E-3	1.015773E-3	-3.869990E-3	1.071557E-2	4.794012E-3	5.796415E-4	4.432106E-3	9.078628E-3	6.736861E-3	2.713057E-3	4.932433E-3	6.047169E-3	-2.337738E-3	-9.908507E-4	4.635820E-3	-8.779871E-4	-6.331650E-4	-4.935669E-3	-7.335067E-4	5.258959E-3	5.423818E-3	1.058030E-3	6.436699E-3	1.278009E-4	6.465476E-3	1.656536E-3	7.610787E-4	1.680923E-3	4.737299E-3	9.835355E-3	2.245678E-3	6.440866E-3	3.208722E-3	-1.609979E-3	7.161505E-3	-3.439413E-3	3.009076E-3	1.998424E-3	1.244951E-3	3.467288E-3	-5.203204E-3	-3.449445E-3	6.077518E-4	4.141766E-4	-2.330590E-3	2.878705E-3	-5.173867E-5	-1.811648E-3	-3.427664E-3	-4.173159E-3	4.663218E-3	2.508286E-3	6.976861E-3	-1.273432E-3	7.955742E-3	1.992106E-3	-2.045748E-3	6.381171E-3	-5.460244E-4	1.615113E-3	2.332254E-4	1.579954E-3	2.352332E-3	-2.188970E-3	3.805700E-3	-4.361514E-3	5.364299E-3	-2.283468E-3	1.113044E-2	2.478074E-3	-5.535057E-3	1.825607E-3	-4.448804E-3	-1.580868E-4	-3.218643E-3	1.993110E-3	-1.011127E-3	-4.238236E-3	7.695121E-3	-2.936224E-3	-6.990654E-4	6.379727E-3	1.093133E-3	1.641076E-3	-1.160099E-3	-4.857289E-5	5.580053E-3	1.010115E-2	4.502546E-3	9.414462E-3	4.174127E-3	-3.543080E-3	3.049243E-3	-3.658345E-3	1.013869E-3	4.596298E-3	7.732162E-4	-1.915599E-3	3.221062E-3	2.854030E-4	3.436232E-3	-3.294301E-3	-3.268992E-3	-6.343741E-3	6.186831E-4	-4.908220E-3	7.046029E-3	3.332490E-3	5.987528E-3	-8.119336E-3	-1.038205E-3	-9.532305E-3
2.820060E+2	-3.516092E-4	9.070514E-3	1.098757E-2	-5.221630E-4	2.525658E-3	-8.011926E-4	9.327014E-3	7.484210E-3	-3.768433E-3	-1.993420E-3	7.507551E-3	4.243761E-3	4.801090E-5	4.590427E-3	-8.443666E-4	5.955467E-3	9.230997E-3	5.782263E-3	3.862187E-3	6.726684E-3	-1.881850E-3	3.117135E-3	9.723766E-3	5.108630E-3	-2.706019E-3	1.001277E-2	5.850541E-3	2.621610E-3	1.689707E-3	2.442556E-3	4.194584E-3	6.233821E-4	4.443570E-3	2.205275E-3	3.654454E-3	2.040514E-3	1.239849E-3	4.194353E-3	-3.382419E-3	-5.277089E-4	1.031419E-2	5.334894E-3	1.443421E-4	1.428332E-2	6.359617E-3	6.599377E-3	3.546421E-3	1.134574E-4	4.368493E-4	3.846901E-3	9.706318E-4	5.522876E-3	3.867453E-3	2.133914E-3	2.824160E-3	-4.048893E-3	-7.284349E-3	4.792931E-3	3.939710E-4	4.903846E-3	4.670639E-3	6.935849E-3	3.546120E-3	-1.321605E-3	-1.558504E-3	-9.015799E-3	1.313451E-3	1.924279E-3	8.088391E-3	3.432856E-4	1.003401E-4	8.883288E-3	-7.334957E-4	4.234748E-3	1.022114E-2	-4.123492E-3	4.003078E-3	-7.313592E-3	2.206530E-3	7.176773E-3	9.400286E-3	8.328318E-4	1.092244E-3	-7.529607E-4	-4.439315E-3	5.293656E-3	1.611037E-2	3.916570E-3	-3.310612E-3	-1.482673E-3	6.723461E-3	-2.435562E-3	9.900122E-4	3.332185E-3	4.890646E-3	1.345430E-3	-5.916457E-3	-6.388937E-3	4.564554E-3	-9.744786E-4	1.258863E-3	4.142056E-3	3.086786E-3	6.786406E-3	3.953809E-3	4.854730E-3	8.513698E-4	2.437787E-3	4.806745E-5	5.302270E-4	2.960580E-3	7.968043E-3	-2.530926E-4	-3.460277E-3	7.534298E-3	-1.083401E-3	-1.897070E-3	2.825584E-3	2.331892E-4	-3.349886E-3	1.520233E-3	1.404397E-3	9.173928E-3	3.788033E-3	1.099508E-2	2.625348E-4	5.463572E-3	7.860435E-3	-1.465174E-3	3.767172E-3	-1.453850E-3	-6.615003E-3	3.305616E-3	1.880302E-4	-2.411788E-3	-2.685314E-3	3.161172E-3	-1.314697E-4	7.485093E-3	-8.729970E-4	1.093161E-3	3.643704E-4	6.374266E-3	7.941201E-3	1.636526E-3	6.194200E-3	-7.187668E-3	-7.387277E-4	2.185132E-3	2.594130E-3	5.180726E-3	-2.057584E-3	4.098701E-3	6.142408E-3	6.629461E-3	-3.575297E-3	-5.018850E-3	2.919658E-3	4.069667E-3	6.638175E-3	4.307605E-3	1.001956E-2	4.495802E-3	-1.744814E-3	-1.774653E-3	3.332518E-3	6.992424E-3	4.511427E-3	2.996886E-3	-5.909567E-3
2.825040E+2	8.703857E-3	3.333173E-3	-2.542887E-4	3.232724E-3	9.374859E-3	-1.323585E-4	8.667979E-3	-1.659158E-3	8.092884E-3	5.808770E-3	2.245798E-3	1.126535E-2	2.759138E-3	-8.084021E-4	1.498382E-3	-2.607231E-3	-5.192451E-3	3.627946E-3	1.313912E-3	4.395979E-3	4.242144E-3	-6.048443E-4	-2.398593E-4	4.408061E-4	5.683762E-3	-3.453001E-4	-4.557240E-3	-6.596862E-4	2.388841E-3	2.442584E-3	8.864708E-3	-4.062283E-3	9.551500E-3	6.217387E-3	1.233822E-2	4.426977E-4	-4.220075E-3	5.365907E-3	7.784609E-3	-7.435850E-3	3.125378E-4	6.042662E-3	5.303954E-3	3.213834E-3	1.831647E-3	1.627630E-3	2.270832E-3	5.813840E-3	8.174422E-3	2.433519E-3	4.703952E-3	2.393929E-3	3.867461E-3	8.908805E-4	1.090121E-2	5.605420E-3	6.019190E-3	4.031410E-3	3.303309E-3	3.348631E-3	7.517472E-3	1.644188E-3	-3.317329E-3	5.015853E-3	1.192043E-2	4.555013E-3	3.347212E-3	4.290656E-3	-3.272972E-3	-9.242349E-4	1.411904E-2	-7.573578E-3	8.471051E-3	7.886716E-3	5.472410E-3	5.622627E-3	7.950220E-3	2.465008E-3	4.780371E-3	-1.661405E-3	5.093713E-4	-4.102492E-3	3.395048E-3	4.869253E-3	6.611595E-3	-4.942414E-3	4.026471E-3	-5.225079E-4	6.214450E-3	-4.198742E-5	2.505729E-3	5.820608E-3	1.761442E-3	2.655075E-3	-1.267457E-4	7.875500E-3	9.202115E-3	1.050745E-2	6.067260E-3	6.754500E-4	3.212288E-3	1.656829E-3	1.595312E-2	1.315605E-3	4.754917E-3	3.373307E-3	1.297519E-2	9.048698E-3	1.312437E-2	9.761182E-3	9.654376E-3	2.687165E-3	2.209557E-3	-5.255551E-5	1.072767E-2	-1.083396E-3	5.533590E-3	7.062009E-3	7.646225E-3	1.226112E-2	-1.807999E-3	3.560413E-3	3.038794E-3	7.410052E-3	-2.679622E-3	5.991136E-3	4.263364E-4	2.478140E-3	1.790802E-3	2.472814E-3	6.033701E-3	8.720291E-3	9.829923E-3	9.815089E-3	9.493922E-3	4.302935E-3	7.695145E-3	8.984004E-3	8.229137E-3	-1.678885E-3	-4.455966E-4	2.279388E-3	5.004356E-3	-4.856883E-5	5.916297E-5	7.243985E-4	-2.803847E-3	9.414443E-3	4.174131E-3	-1.335257E-4	3.759703E-3	3.544920E-3	-1.299802E-3	-4.680050E-3	-1.422881E-3	7.212845E-3	3.221011E-3	3.578246E-3	2.169421E-3	7.300413E-3	3.549974E-3	7.885235E-3	2.169571E-3	-3.326527E-3	7.046040E-3	1.352766E-3	-8.081062E-3	7.318214E-3	-3.055756E-3	1.944949E-2
2.830030E+2	7.057353E-3	1.693928E-3	1.500245E-2	-1.460895E-3	1.074472E-2	8.562480E-3	1.262233E-2	1.695614E-4	1.328228E-2	6.518077E-3	2.197729E-2	3.463613E-3	1.292580E-2	8.639536E-3	1.789767E-2	5.955499E-3	7.788689E-3	1.296328E-2	6.410340E-3	1.216504E-2	1.792532E-3	-1.225207E-3	2.527787E-3	8.220574E-3	8.734583E-3	1.479334E-2	4.626103E-3	6.723254E-3	1.007985E-2	9.370957E-3	8.864686E-3	2.631485E-3	1.392974E-2	1.992066E-4	1.161461E-2	5.236101E-3	8.519726E-3	-6.935264E-3	1.398853E-2	7.147982E-3	8.170956E-3	1.796000E-3	4.566916E-3	1.032995E-2	8.623616E-3	1.228141E-2	1.438901E-2	7.080592E-3	-4.979425E-3	3.846854E-3	3.210657E-3	4.740627E-3	9.196161E-3	-2.216791E-3	1.359352E-2	2.045818E-2	3.671503E-3	5.554502E-3	5.485324E-3	9.569580E-3	5.382332E-3	2.400152E-3	4.170083E-3	8.818330E-3	-2.307321E-3	7.853583E-4	1.148226E-2	1.217857E-2	8.719616E-3	4.145886E-3	1.472854E-2	1.464322E-2	1.230623E-2	6.425895E-3	1.429154E-2	3.998323E-3	1.505509E-2	1.713297E-2	9.284593E-3	5.137188E-3	9.400304E-3	2.947959E-3	1.490909E-2	1.611366E-2	1.181200E-2	3.487272E-3	1.042384E-2	3.916565E-3	3.833200E-3	6.783116E-4	8.129416E-3	3.343736E-3	1.179017E-2	8.749505E-3	6.144959E-3	6.569483E-3	1.318068E-2	2.763262E-3	1.282953E-2	9.750242E-3	1.623509E-2	6.005980E-3	9.858518E-3	1.069416E-2	7.158225E-3	1.152117E-2	2.277668E-3	-1.694056E-3	9.278421E-3	5.301909E-4	6.976877E-3	4.667524E-3	1.123933E-2	6.290120E-4	1.232430E-2	9.698744E-3	2.156005E-3	4.035982E-3	8.387505E-3	1.472603E-2	6.512608E-3	7.872438E-3	1.300841E-2	2.882564E-3	1.099511E-2	2.172061E-3	3.574599E-3	1.391552E-2	8.302555E-3	1.476931E-2	9.777390E-3	9.527352E-3	1.113479E-2	6.806657E-3	1.229526E-2	1.362067E-2	2.405484E-3	4.776833E-3	1.269320E-2	3.962111E-3	3.401331E-3	1.057778E-2	6.374300E-3	1.393351E-2	9.523569E-3	4.631417E-3	1.034771E-2	1.878667E-2	6.826145E-3	3.275996E-3	1.228574E-2	1.555046E-2	6.412367E-3	4.596283E-3	1.102167E-2	4.723292E-3	5.468312E-3	1.213971E-2	3.436220E-3	2.665212E-3	1.112656E-2	2.905036E-3	6.046615E-3	8.536211E-3	8.306166E-3	1.352786E-3	9.002210E-3	2.836941E-2	2.996910E-3	1.335865E-3
2.835020E+2	1.035029E-2	1.398832E-2	1.259350E-2	1.449742E-2	1.553920E-2	1.525079E-2	8.667922E-3	1.479899E-2	3.644859E-3	2.283183E-2	2.855440E-2	1.516620E-2	1.902587E-2	2.078692E-2	1.848335E-2	1.056623E-2	9.231014E-3	1.942627E-2	1.214384E-2	1.760334E-2	1.036612E-2	9.940906E-3	1.249148E-2	2.066799E-2	1.483626E-2	1.080955E-2	2.054395E-2	1.000452E-2	2.266505E-2	2.091828E-2	1.528614E-2	2.003525E-2	1.903766E-2	2.360334E-2	1.957473E-2	1.082841E-2	1.883295E-2	1.415242E-2	1.460894E-2	1.328855E-2	2.174462E-2	1.807487E-2	1.709730E-2	1.586470E-2	2.145287E-2	2.861710E-2	1.757802E-2	1.404768E-2	2.210201E-2	1.798009E-2	1.889052E-2	2.429646E-2	1.052832E-2	2.015829E-2	1.830509E-2	1.228913E-2	3.262619E-2	5.554507E-3	9.122039E-3	1.656815E-2	6.805735E-3	1.978695E-2	1.103359E-2	1.832457E-2	1.117157E-2	3.801071E-3	1.216019E-2	5.868212E-3	1.818742E-2	7.314712E-3	9.242957E-3	1.382036E-2	2.227773E-2	2.541609E-2	2.039704E-2	1.212006E-2	2.215993E-2	2.411768E-2	1.314535E-2	1.669482E-2	1.903219E-2	2.057407E-2	4.162654E-3	1.450726E-2	9.861856E-3	9.508525E-3	2.535104E-2	1.945344E-2	1.970839E-2	1.796592E-2	1.726784E-2	1.490237E-2	1.024728E-2	1.687541E-2	2.370573E-2	2.681246E-2	9.997828E-3	2.317967E-2	9.824151E-3	1.470008E-2	4.514609E-3	1.470439E-2	2.746504E-2	-1.029047E-3	1.597052E-2	1.818756E-2	2.509908E-2	1.648600E-2	2.158548E-2	2.228890E-2	1.902571E-2	1.654944E-2	1.534379E-2	5.399806E-3	1.871101E-2	1.550457E-2	8.049799E-4	1.190361E-2	2.617870E-2	1.636934E-2	1.566540E-2	1.434057E-2	1.760976E-2	7.410085E-3	1.019068E-2	1.171967E-2	1.805657E-2	1.526109E-2	2.702409E-2	1.735803E-2	1.052620E-2	1.679149E-2	2.157365E-2	1.643371E-2	1.719761E-2	1.206770E-2	1.676303E-2	2.090426E-2	1.343725E-2	6.379672E-3	1.801944E-2	1.504613E-2	8.429122E-3	1.193609E-2	1.977669E-2	1.400813E-2	2.788308E-2	5.509370E-3	1.942315E-2	1.827797E-2	2.933776E-2	2.355412E-2	1.258213E-2	2.469503E-2	1.248575E-2	1.219198E-2	2.868982E-2	1.543258E-2	1.040379E-2	1.061127E-2	1.036889E-2	1.073100E-2	1.612702E-2	5.372824E-3	2.909768E-2	1.389090E-2	2.407570E-2	3.011442E-4	2.317234E-2	4.958603E-3
2.840000E+2	2.352189E-2	2.464344E-2	3.588017E-2	2.106842E-2	3.677177E-2	2.795875E-2	2.778068E-2	2.577102E-2	1.921299E-2	3.063404E-2	3.578933E-2	3.389028E-2	2.105921E-2	3.158459E-2	2.902576E-2	2.835031E-2	3.807785E-2	3.019782E-2	2.743309E-2	2.148792E-2	3.180002E-2	2.979168E-2	2.466929E-2	2.766976E-2	3.924287E-2	2.674496E-2	3.340061E-2	2.395000E-2	2.825850E-2	2.938623E-2	2.637761E-2	3.208400E-2	2.706430E-2	2.761543E-2	2.319294E-2	1.322514E-2	1.640630E-2	3.113966E-2	3.508196E-2	3.861836E-2	4.174792E-2	3.293828E-2	1.562311E-2	2.851563E-2	1.617025E-2	2.861710E-2	3.288511E-2	2.228161E-2	2.751830E-2	1.586005E-2	1.963712E-2	2.742536E-2	3.184311E-2	2.326593E-2	2.436286E-2	2.194348E-2	3.027857E-2	2.840076E-2	1.639542E-2	2.978769E-2	2.602198E-2	3.112622E-2	2.226474E-2	2.022577E-2	1.491575E-2	1.661801E-2	2.368474E-2	2.401028E-2	3.144229E-2	2.949640E-2	2.691869E-2	2.369450E-2	2.151076E-2	2.906799E-2	2.718109E-2	2.755151E-2	3.321192E-2	3.599169E-2	2.665805E-2	2.485311E-2	2.570039E-2	2.480437E-2	2.104990E-2	3.217708E-2	2.871337E-2	2.998066E-2	2.392936E-2	2.611205E-2	4.828366E-2	3.309265E-2	3.413874E-2	3.141467E-2	1.487590E-2	2.838712E-2	2.935016E-2	3.138346E-2	3.864359E-2	2.951585E-2	2.485144E-2	2.294989E-2	3.251363E-2	2.402403E-2	3.085091E-2	2.007268E-2	4.000373E-2	2.781683E-2	2.367269E-2	2.309696E-2	3.004660E-2	1.305797E-2	2.571952E-2	2.711117E-2	2.437350E-2	1.221526E-2	2.270272E-2	3.789824E-2	1.634180E-2	1.008796E-2	3.952206E-2	2.294239E-2	3.147459E-2	2.152723E-2	1.530917E-2	3.004786E-2	2.466984E-2	3.081477E-2	2.750138E-2	3.477201E-2	2.783812E-2	2.512425E-2	2.849617E-2	1.194881E-2	2.809795E-2	2.545911E-2	3.470588E-2	4.002075E-2	1.676301E-2	1.739831E-2	3.054958E-2	2.733197E-2	4.187011E-2	2.908956E-2	2.555270E-2	2.192320E-2	2.214276E-2	2.885470E-2	3.007497E-2	3.284489E-2	2.406412E-2	2.918858E-2	3.786374E-2	3.475924E-2	2.800651E-2	3.551743E-2	2.419823E-2	2.712951E-2	2.494443E-2	3.189696E-2	4.397438E-2	1.855721E-2	1.567249E-2	1.997986E-2	4.869451E-2	2.435329E-2	2.972767E-2	1.982993E-2	3.713942E-2	2.135230E-2	3.326013E-2	2.669496E-2
2.841030E+2	2.022891E-2	1.972565E-2	2.544129E-2	2.388469E-2	2.033361E-2	4.133544E-2	2.184911E-2	3.674325E-2	2.069559E-2	2.779687E-2	3.907791E-2	3.154978E-2	3.732594E-2	2.551092E-2	2.316887E-2	2.835028E-2	2.870261E-2	3.163404E-2	3.252949E-2	2.537239E-2	2.445123E-2	1.304259E-2	2.411575E-2	2.689178E-2	2.017518E-2	2.594816E-2	1.931946E-2	2.641101E-2	1.777083E-2	3.323535E-2	3.513407E-2	2.806767E-2	2.925345E-2	1.290428E-2	2.319299E-2	2.520859E-2	2.307953E-2	2.176735E-2	1.895170E-2	2.556960E-2	2.245901E-2	2.727604E-2	2.151980E-2	3.009696E-2	2.371689E-2	2.648637E-2	2.204259E-2	2.164823E-2	1.978078E-2	3.493984E-2	2.411709E-2	2.664312E-2	2.185185E-2	2.450898E-2	1.965130E-2	2.862720E-2	1.854010E-2	2.383147E-2	1.930476E-2	1.656819E-2	3.598594E-2	2.810241E-2	2.101683E-2	2.339452E-2	2.240400E-2	2.491128E-2	2.639643E-2	2.874297E-2	2.008099E-2	1.111728E-2	2.813771E-2	3.521436E-2	2.304477E-2	1.957294E-2	1.904029E-2	3.080019E-2	2.531765E-2	3.319779E-2	2.665806E-2	2.213373E-2	2.718221E-2	1.281863E-2	1.721192E-2	1.852316E-2	1.896256E-2	1.733613E-2	2.961588E-2	4.016918E-2	2.843967E-2	1.724567E-2	1.937668E-2	1.737927E-2	2.413314E-2	2.906433E-2	1.492534E-2	2.550648E-2	3.307354E-2	1.825157E-2	2.485146E-2	2.212488E-2	2.014194E-2	2.029613E-2	2.881939E-2	2.163577E-2	2.558375E-2	2.263180E-2	3.294391E-2	2.392328E-2	2.466230E-2	1.833279E-2	2.237256E-2	2.711119E-2	1.944821E-2	2.243843E-2	2.749275E-2	1.716338E-2	2.242137E-2	1.977125E-2	2.914387E-2	2.705051E-2	3.147465E-2	1.290317E-2	2.911322E-2	3.366991E-2	2.064786E-2	2.444976E-2	2.183458E-2	1.795228E-2	1.400045E-2	3.030172E-2	2.774741E-2	2.647694E-2	1.570177E-2	3.027265E-2	2.910327E-2	2.759721E-2	1.525170E-2	2.230663E-2	2.608547E-2	1.927336E-2	3.725386E-2	3.228121E-2	2.555276E-2	2.724968E-2	2.766368E-2	2.572912E-2	2.642180E-2	1.410052E-2	2.737914E-2	1.827797E-2	3.431126E-2	2.675561E-2	3.340501E-2	3.474436E-2	3.298274E-2	2.546975E-2	2.943900E-2	2.926268E-2	1.357080E-2	1.524639E-2	2.476445E-2	2.353709E-2	1.845331E-2	2.039899E-2	1.901690E-2	2.708887E-2	2.910020E-2	2.135230E-2	3.931274E-2	2.307220E-2
2.842030E+2	4.245595E-2	3.283983E-2	2.544131E-2	4.547528E-2	3.677174E-2	3.330941E-2	2.778065E-2	4.131486E-2	3.033298E-2	4.127341E-2	5.420529E-2	3.935144E-2	3.461483E-2	4.170738E-2	3.781108E-2	3.691306E-2	3.014498E-2	3.594274E-2	3.698890E-2	3.469527E-2	3.731156E-2	3.227310E-2	3.186524E-2	2.766974E-2	4.076824E-2	3.152555E-2	2.482948E-2	3.543459E-2	4.364043E-2	4.478260E-2	3.221531E-2	4.547146E-2	1.903760E-2	2.694673E-2	3.549505E-2	3.958883E-2	3.521263E-2	3.348277E-2	4.004507E-2	3.938588E-2	3.460386E-2	3.364606E-2	3.331319E-2	4.749198E-2	3.805551E-2	3.927087E-2	3.352290E-2	4.254958E-2	3.448207E-2	3.988646E-2	2.486377E-2	3.368324E-2	3.783792E-2	2.761660E-2	3.109373E-2	3.531099E-2	3.575643E-2	3.373152E-2	3.021482E-2	3.834155E-2	4.239137E-2	3.414994E-2	3.411993E-2	3.290072E-2	1.865987E-2	3.169668E-2	2.978603E-2	3.426450E-2	3.459834E-2	3.646779E-2	3.484234E-2	5.331694E-2	3.685154E-2	3.564147E-2	2.582425E-2	3.404895E-2	4.821111E-2	4.088103E-2	3.502299E-2	3.845031E-2	2.421859E-2	3.255989E-2	2.565549E-2	3.619297E-2	2.806329E-2	2.576584E-2	4.098901E-2	4.608796E-2	3.796482E-2	2.444879E-2	3.905946E-2	3.719400E-2	4.727621E-2	2.432417E-2	4.502949E-2	3.987246E-2	4.660070E-2	3.373992E-2	3.612195E-2	3.367466E-2	3.902500E-2	3.769287E-2	4.642588E-2	4.351906E-2	4.080481E-2	2.707605E-2	4.506775E-2	3.466605E-2	4.081539E-2	3.151984E-2	4.513141E-2	3.767292E-2	3.340329E-2	2.925389E-2	4.106448E-2	3.706897E-2	3.255406E-2	1.674522E-2	3.803955E-2	3.773172E-2	2.981058E-2	3.158869E-2	5.058623E-2	3.366985E-2	3.593141E-2	3.527031E-2	2.057521E-2	3.477194E-2	4.004771E-2	3.742071E-2	4.421993E-2	3.777665E-2	4.962811E-2	3.568786E-2	4.451058E-2	5.011481E-2	2.583087E-2	3.001971E-2	4.468579E-2	4.183733E-2	3.648450E-2	2.079118E-2	4.404621E-2	2.658385E-2	3.239587E-2	3.510587E-2	4.395719E-2	2.347270E-2	3.533514E-2	3.941715E-2	4.212677E-2	4.676469E-2	4.651575E-2	4.556680E-2	3.005459E-2	1.634133E-2	3.692975E-2	3.123837E-2	3.764030E-2	2.650327E-2	4.294827E-2	3.207446E-2	3.628784E-2	3.463430E-2	4.169862E-2	2.114977E-2	6.025205E-2	2.415920E-2	7.031989E-3	4.118587E-2
2.843010E+2	5.480426E-2	4.349489E-2	5.996976E-2	7.269821E-2	5.457972E-2	5.738753E-2	5.941538E-2	5.411558E-2	4.738366E-2	5.049419E-2	6.801732E-2	5.885558E-2	5.765935E-2	7.477523E-2	5.362466E-2	5.140380E-2	5.322243E-2	4.958672E-2	5.801166E-2	4.479505E-2	5.813309E-2	5.460523E-2	4.957841E-2	8.990714E-2	4.763269E-2	6.578665E-2	5.115515E-2	7.645087E-2	6.111985E-2	5.786955E-2	5.790093E-2	6.956896E-2	5.041477E-2	4.500138E-2	4.779708E-2	5.237127E-2	4.370585E-2	5.222732E-2	4.500825E-2	7.008871E-2	5.603594E-2	5.629492E-2	7.532699E-2	7.042176E-2	7.201532E-2	5.560656E-2	6.349947E-2	4.698319E-2	6.311101E-2	5.472627E-2	5.174344E-2	7.670589E-2	5.382397E-2	5.061323E-2	6.003645E-2	6.724452E-2	6.471112E-2	5.429305E-2	4.185228E-2	5.467164E-2	5.733731E-2	4.019754E-2	4.722293E-2	5.634937E-2	4.936184E-2	6.034625E-2	6.774946E-2	7.449255E-2	4.154135E-2	5.548075E-2	5.495618E-2	6.812807E-2	4.759015E-2	5.463164E-2	5.906558E-2	6.491166E-2	6.478909E-2	7.301078E-2	5.175302E-2	6.564477E-2	6.348693E-2	6.217185E-2	5.712726E-2	7.474526E-2	4.301453E-2	3.780829E-2	5.662693E-2	6.384425E-2	6.654010E-2	4.893967E-2	5.944516E-2	6.774183E-2	5.961915E-2	7.443406E-2	4.691096E-2	6.403343E-2	5.455783E-2	4.641218E-2	5.640881E-2	6.254891E-2	6.311722E-2	4.949779E-2	6.470959E-2	6.305762E-2	5.842922E-2	6.337089E-2	7.074189E-2	6.524163E-2	4.543047E-2	5.723462E-2	5.784962E-2	7.661924E-2	6.870156E-2	4.970020E-2	6.182119E-2	6.775662E-2	5.079284E-2	4.942625E-2	6.843278E-2	5.169947E-2	6.226112E-2	5.889822E-2	5.902205E-2	6.355169E-2	6.086758E-2	6.773209E-2	4.890956E-2	5.764682E-2	5.062946E-2	5.618909E-2	4.871245E-2	6.037604E-2	5.876210E-2	4.350993E-2	7.952736E-2	6.409133E-2	4.925634E-2	5.386022E-2	5.138193E-2	6.601294E-2	6.495141E-2	5.526136E-2	5.843002E-2	4.123174E-2	4.501505E-2	4.682683E-2	6.076189E-2	6.955256E-2	4.196515E-2	7.692223E-2	5.491574E-2	6.277204E-2	5.345672E-2	6.411952E-2	6.592429E-2	7.360154E-2	5.340956E-2	5.165414E-2	4.460786E-2	4.967912E-2	6.188987E-2	4.914926E-2	5.567324E-2	4.412451E-2	6.312023E-2	5.150510E-2	6.326680E-2	6.485824E-2	6.755815E-2	6.292223E-2
2.844030E+2	7.867769E-2	7.709957E-2	7.843838E-2	7.269821E-2	7.512735E-2	8.146555E-2	8.841392E-2	1.016613E-1	7.481311E-2	8.241237E-2	8.643342E-2	9.552365E-2	9.629280E-2	8.962194E-2	8.232342E-2	7.379859E-2	5.538590E-2	8.046528E-2	7.903437E-2	8.053272E-2	9.671411E-2	8.252047E-2	8.445119E-2	9.690884E-2	8.881885E-2	1.008446E-1	8.850081E-2	1.051622E-1	1.086640E-1	9.328128E-2	8.825669E-2	9.768272E-2	6.646826E-2	8.779739E-2	8.976879E-2	8.272946E-2	8.617184E-2	8.151568E-2	8.533377E-2	1.023267E-1	6.532316E-2	8.248274E-2	7.606410E-2	1.194440E-1	9.390056E-2	8.756769E-2	8.071996E-2	1.014533E-1	8.168113E-2	9.076585E-2	8.832973E-2	9.156834E-2	8.912655E-2	9.971405E-2	8.561362E-2	8.952369E-2	8.740538E-2	1.015086E-1	8.040125E-2	1.052170E-1	8.722918E-2	8.328664E-2	7.842060E-2	7.472810E-2	7.856618E-2	8.899564E-2	8.334153E-2	1.005224E-1	8.130618E-2	8.209881E-2	9.518377E-2	1.166760E-1	1.043512E-1	9.626392E-2	8.687979E-2	8.684051E-2	1.066289E-1	8.278935E-2	9.036065E-2	9.079959E-2	8.571430E-2	8.896354E-2	8.706382E-2	8.358013E-2	8.071753E-2	8.718231E-2	9.785436E-2	9.713756E-2	1.014655E-1	8.639617E-2	7.772194E-2	1.015921E-1	1.151626E-1	9.000872E-2	8.454117E-2	9.472440E-2	8.240788E-2	9.076511E-2	9.172310E-2	9.142314E-2	8.655832E-2	7.372889E-2	8.908791E-2	1.083873E-1	8.406476E-2	8.781446E-2	6.432332E-2	9.994904E-2	8.619770E-2	7.503713E-2	9.064915E-2	1.056641E-1	6.870153E-2	6.673886E-2	8.497293E-2	8.102696E-2	6.903175E-2	8.210728E-2	1.040152E-1	8.949448E-2	7.224585E-2	8.620780E-2	7.359299E-2	9.796106E-2	1.035007E-1	8.555421E-2	9.172600E-2	8.994066E-2	9.865420E-2	8.595956E-2	9.588376E-2	9.185379E-2	8.224959E-2	8.562828E-2	1.082411E-1	9.903258E-2	6.814769E-2	6.998757E-2	9.155874E-2	8.777119E-2	9.341832E-2	8.717820E-2	8.856753E-2	8.317785E-2	8.681618E-2	9.605474E-2	8.341176E-2	8.595383E-2	7.710410E-2	8.510514E-2	1.032298E-1	8.918403E-2	9.664500E-2	9.117559E-2	1.127745E-1	1.043063E-1	1.035981E-1	7.009415E-2	8.387923E-2	8.411177E-2	8.310437E-2	7.333840E-2	9.754563E-2	1.050202E-1	9.966279E-2	7.130208E-2	1.054725E-1	8.450597E-2	8.773373E-2	7.379049E-2
2.845010E+2	1.074905E-1	1.025081E-1	1.201937E-1	1.205731E-1	1.018393E-1	1.028684E-1	1.220258E-1	1.053187E-1	1.066905E-1	1.157491E-1	1.285272E-1	1.048856E-1	1.349264E-1	1.193156E-1	1.039939E-1	9.882813E-2	1.051468E-1	8.549204E-2	9.814592E-2	9.995530E-2	1.285587E-1	1.104356E-1	1.110208E-1	1.451429E-1	1.223780E-1	1.104058E-1	1.184996E-1	1.297720E-1	1.429235E-1	1.371609E-1	1.215314E-1	1.184334E-1	1.175474E-1	1.239066E-1	1.230567E-1	1.314624E-1	1.171113E-1	1.119757E-1	1.343449E-1	1.591268E-1	1.074730E-1	1.044239E-1	1.261857E-1	1.249788E-1	1.308791E-1	1.301824E-1	1.049563E-1	1.267884E-1	1.110839E-1	1.091390E-1	1.174494E-1	1.244221E-1	1.097752E-1	9.660646E-2	9.503683E-2	1.303689E-1	1.124472E-1	1.182626E-1	1.044034E-1	1.114380E-1	1.199679E-1	1.331792E-1	1.214735E-1	1.317652E-1	1.197517E-1	1.191531E-1	1.172374E-1	1.099878E-1	1.027666E-1	1.068156E-1	1.110311E-1	1.240816E-1	1.227602E-1	1.481216E-1	9.230695E-2	1.298860E-1	1.050500E-1	1.253961E-1	1.231772E-1	1.241128E-1	9.386429E-2	1.221007E-1	1.108595E-1	1.293611E-1	1.132203E-1	1.022354E-1	1.248655E-1	1.333901E-1	1.197219E-1	1.094464E-1	1.213052E-1	1.263605E-1	1.066767E-1	1.110008E-1	9.457591E-2	1.117024E-1	1.038922E-1	1.076615E-1	9.022030E-2	1.400969E-1	8.460490E-2	9.236826E-2	1.080488E-1	1.115135E-1	1.289269E-1	1.152207E-1	1.092529E-1	1.206082E-1	1.015816E-1	1.033893E-1	1.274650E-1	1.248071E-1	1.187757E-1	1.014976E-1	1.216964E-1	1.025913E-1	1.129401E-1	8.150207E-2	1.203238E-1	1.108571E-1	1.379791E-1	1.185480E-1	1.104038E-1	1.378035E-1	1.220017E-1	1.173794E-1	1.137638E-1	1.242529E-1	1.206316E-1	1.157299E-1	1.220900E-1	1.120318E-1	1.031273E-1	1.036791E-1	1.327526E-1	1.091267E-1	1.119758E-1	8.962089E-2	1.287594E-1	1.369283E-1	1.141914E-1	1.184567E-1	1.070610E-1	1.138051E-1	9.785806E-2	1.202780E-1	1.046003E-1	9.844998E-2	1.056131E-1	1.089720E-1	1.451494E-1	1.147957E-1	1.282648E-1	1.035440E-1	1.178986E-1	1.150944E-1	1.365577E-1	1.240972E-1	1.016147E-1	1.205310E-1	1.035612E-1	1.174482E-1	8.824067E-2	1.026475E-1	1.091137E-1	9.439856E-2	1.185362E-1	1.350289E-1	1.179969E-1	9.552676E-2
2.846010E+2	1.420658E-1	1.705371E-1	1.627520E-1	1.750190E-1	1.593726E-1	1.771090E-1	1.477291E-1	1.684080E-1	1.830476E-1	1.746201E-1	1.633859E-1	1.829024E-1	2.006708E-1	1.530583E-1	1.631486E-1	1.660125E-1	1.513018E-1	1.616112E-1	1.605771E-1	1.535618E-1	1.763257E-1	2.022455E-1	2.040150E-1	2.097143E-1	2.459365E-1	2.323122E-1	2.005378E-1	2.003199E-1	2.261258E-1	2.256902E-1	1.822428E-1	2.128153E-1	2.102195E-1	1.620220E-1	2.048291E-1	2.017656E-1	1.941568E-1	1.828535E-1	1.901800E-1	2.312782E-1	1.960587E-1	1.928964E-1	1.785188E-1	1.993028E-1	2.387960E-1	2.004971E-1	1.891457E-1	1.755577E-1	1.722106E-1	2.031246E-1	1.816618E-1	1.932584E-1	1.770497E-1	1.705684E-1	1.825379E-1	2.053754E-1	1.828774E-1	1.700474E-1	1.720459E-1	2.117509E-1	2.324185E-1	1.898749E-1	1.707658E-1	1.894366E-1	1.976300E-1	1.711747E-1	1.796059E-1	1.959655E-1	1.822960E-1	1.701916E-1	1.823432E-1	2.326971E-1	1.611122E-1	2.087437E-1	1.804983E-1	1.956726E-1	2.029395E-1	1.938467E-1	1.765843E-1	1.886994E-1	1.775875E-1	1.644034E-1	1.776409E-1	1.655037E-1	1.860260E-1	1.762962E-1	1.995012E-1	2.177333E-1	1.800475E-1	1.742751E-1	1.775415E-1	1.965379E-1	1.845916E-1	1.800708E-1	1.742262E-1	1.887565E-1	1.953990E-1	1.822869E-1	1.833900E-1	2.027955E-1	1.757646E-1	1.563633E-1	1.811834E-1	2.217113E-1	1.793966E-1	1.870696E-1	1.598879E-1	2.082032E-1	1.946544E-1	1.587748E-1	1.769991E-1	2.145817E-1	1.910137E-1	1.471612E-1	1.600166E-1	1.788960E-1	1.541461E-1	1.777295E-1	2.144686E-1	2.176692E-1	1.612768E-1	1.710109E-1	1.916944E-1	2.002839E-1	2.016371E-1	1.740285E-1	1.792478E-1	1.948958E-1	1.800521E-1	1.532666E-1	1.722565E-1	1.822517E-1	1.859858E-1	1.409838E-1	2.055872E-1	2.069625E-1	1.845188E-1	1.520268E-1	1.763760E-1	1.635216E-1	1.972840E-1	1.695235E-1	1.933642E-1	1.657385E-1	2.066984E-1	1.913850E-1	1.827788E-1	1.421866E-1	1.758910E-1	1.764810E-1	2.218837E-1	1.748232E-1	1.945894E-1	1.684785E-1	2.042788E-1	2.038891E-1	1.657719E-1	1.787588E-1	1.883918E-1	1.430446E-1	1.558399E-1	1.693839E-1	1.843923E-1	1.817325E-1	1.506965E-1	1.722665E-1	1.918937E-1	1.743245E-1	1.502775E-1	1.716040E-1
2.847020E+2	3.890326E-1	4.188845E-1	4.518275E-1	4.998171E-1	4.032047E-1	4.239093E-1	4.251920E-1	4.865989E-1	4.336199E-1	4.611747E-1	4.534387E-1	4.481602E-1	4.948277E-1	4.648402E-1	4.284652E-1	4.387026E-1	4.073174E-1	4.395180E-1	3.822711E-1	4.045020E-1	4.353700E-1	4.956656E-1	4.658373E-1	5.341271E-1	5.243246E-1	5.374746E-1	4.809362E-1	5.013790E-1	5.162855E-1	5.451651E-1	4.898873E-1	5.267517E-1	4.991813E-1	4.448776E-1	4.913947E-1	5.061461E-1	4.738261E-1	4.517211E-1	4.643942E-1	5.168146E-1	4.911070E-1	4.816705E-1	4.770385E-1	4.776226E-1	5.142483E-1	5.179785E-1	4.346980E-1	4.719768E-1	5.412917E-1	5.062813E-1	4.750988E-1	4.623463E-1	5.334063E-1	4.670382E-1	4.860994E-1	5.002030E-1	4.857287E-1	4.792331E-1	4.178862E-1	5.329088E-1	5.605179E-1	5.058618E-1	4.596561E-1	4.872980E-1	5.166312E-1	4.689787E-1	4.494174E-1	4.546864E-1	4.562318E-1	4.737650E-1	4.706412E-1	5.511382E-1	4.932414E-1	4.797189E-1	4.762792E-1	4.864329E-1	5.147640E-1	5.221287E-1	4.616373E-1	4.980361E-1	4.998844E-1	4.231555E-1	4.823794E-1	5.156872E-1	4.551479E-1	4.400261E-1	5.200801E-1	5.277299E-1	4.745319E-1	4.393523E-1	4.404472E-1	5.664138E-1	4.885376E-1	4.820848E-1	4.482997E-1	4.950131E-1	4.563942E-1	4.357319E-1	4.606439E-1	5.195873E-1	4.603129E-1	4.235273E-1	5.014874E-1	4.944702E-1	4.798126E-1	4.633554E-1	4.743946E-1	5.280069E-1	5.107929E-1	4.324071E-1	4.507753E-1	4.964477E-1	4.988470E-1	3.802496E-1	4.338463E-1	4.376681E-1	4.689348E-1	4.252581E-1	5.191433E-1	5.233162E-1	4.999287E-1	4.915394E-1	4.371007E-1	5.398499E-1	5.274177E-1	4.630018E-1	4.367754E-1	4.687209E-1	4.673868E-1	4.296143E-1	4.852345E-1	5.034852E-1	4.593542E-1	4.195676E-1	5.277414E-1	5.447279E-1	4.709129E-1	4.507340E-1	4.843984E-1	4.689409E-1	5.073422E-1	4.823083E-1	4.728214E-1	4.227410E-1	4.914196E-1	4.187714E-1	4.618828E-1	4.577159E-1	4.881637E-1	4.867498E-1	5.565293E-1	4.885666E-1	4.760851E-1	4.753713E-1	5.205178E-1	4.603151E-1	4.856298E-1	4.481151E-1	4.436560E-1	4.608852E-1	4.778457E-1	4.539629E-1	4.712961E-1	4.648577E-1	4.568997E-1	4.342460E-1	4.853244E-1	5.181613E-1	4.468566E-1	4.577993E-1
2.848000E+2	8.335724E-1	8.278786E-1	8.902580E-1	9.888919E-1	8.031990E-1	8.238733E-1	8.595112E-1	9.766836E-1	8.576632E-1	9.009353E-1	8.822689E-1	9.092398E-1	9.841848E-1	9.068698E-1	7.904214E-1	8.418090E-1	8.854537E-1	8.387858E-1	8.071859E-1	8.201470E-1	8.364904E-1	8.145188E-1	8.577412E-1	9.775683E-1	9.422888E-1	9.223149E-1	8.250060E-1	9.435341E-1	9.868326E-1	9.624071E-1	8.191301E-1	9.236911E-1	9.304353E-1	8.280357E-1	8.691403E-1	9.287646E-1	8.736133E-1	7.604205E-1	8.471765E-1	1.027249E+0	8.754559E-1	8.475919E-1	8.382099E-1	9.528235E-1	9.391241E-1	8.780742E-1	8.703143E-1	8.950707E-1	8.964457E-1	8.384109E-1	9.223475E-1	8.651956E-1	8.897632E-1	8.387132E-1	8.852385E-1	9.784632E-1	9.247443E-1	8.363959E-1	8.171952E-1	9.193864E-1	9.576535E-1	9.170977E-1	8.115663E-1	9.353578E-1	9.307331E-1	8.497156E-1	8.290519E-1	8.845751E-1	8.298952E-1	8.483195E-1	8.808414E-1	1.011108E+0	8.361085E-1	9.705408E-1	9.559041E-1	9.583087E-1	9.813175E-1	9.998839E-1	8.599400E-1	9.399459E-1	8.992363E-1	8.969454E-1	8.546670E-1	9.510063E-1	8.542799E-1	8.440502E-1	9.408839E-1	9.679401E-1	9.547563E-1	8.737051E-1	8.741712E-1	9.734430E-1	9.652855E-1	9.235939E-1	8.547055E-1	8.848543E-1	9.059725E-1	8.229404E-1	8.235538E-1	9.906502E-1	9.167624E-1	8.261366E-1	9.240438E-1	9.368243E-1	8.747604E-1	8.588944E-1	9.179862E-1	9.279685E-1	9.630784E-1	8.774700E-1	8.878788E-1	8.872320E-1	9.248887E-1	7.844048E-1	8.138547E-1	8.714434E-1	8.377647E-1	7.944318E-1	9.483564E-1	9.883600E-1	9.567325E-1	8.918397E-1	9.171753E-1	1.008904E+0	9.440951E-1	8.620907E-1	8.529761E-1	8.845043E-1	8.784461E-1	8.082173E-1	9.000416E-1	9.143108E-1	8.619021E-1	7.992350E-1	9.493428E-1	9.570351E-1	8.615885E-1	8.349865E-1	8.668216E-1	8.928212E-1	9.151117E-1	8.033921E-1	8.474858E-1	8.675035E-1	9.094303E-1	8.555719E-1	8.951532E-1	8.654056E-1	8.448581E-1	8.440705E-1	9.302523E-1	9.423733E-1	8.555248E-1	8.866223E-1	8.997109E-1	8.586476E-1	9.350792E-1	8.518207E-1	8.908428E-1	8.595102E-1	8.377344E-1	8.288959E-1	8.745111E-1	8.879633E-1	8.380780E-1	8.255664E-1	9.435582E-1	9.672539E-1	8.624714E-1	8.852806E-1
2.849040E+2	1.016327E+0	9.573794E-1	1.009101E+0	1.211369E+0	9.689501E-1	1.036563E+0	1.012412E+0	1.225385E+0	1.091926E+0	1.072585E+0	1.036832E+0	1.079317E+0	1.138042E+0	1.110001E+0	1.032310E+0	9.979141E-1	1.028967E+0	1.093713E+0	9.390554E-1	1.050887E+0	1.077162E+0	1.029156E+0	9.308078E-1	1.055365E+0	1.093305E+0	1.057767E+0	9.462266E-1	1.055099E+0	1.132262E+0	1.148703E+0	9.691577E-1	1.040831E+0	1.055214E+0	9.771533E-1	9.581489E-1	9.471399E-1	1.001011E+0	9.654399E-1	9.712548E-1	1.149292E+0	9.969046E-1	1.020997E+0	9.701479E-1	1.077750E+0	1.139865E+0	1.047113E+0	9.844799E-1	9.805762E-1	1.046554E+0	9.776224E-1	1.010454E+0	1.001303E+0	9.963363E-1	9.897447E-1	1.037356E+0	1.109911E+0	1.110210E+0	9.902270E-1	9.524805E-1	1.056248E+0	1.123483E+0	1.080383E+0	9.207584E-1	1.073515E+0	1.070015E+0	9.499890E-1	9.619232E-1	1.081770E+0	9.851675E-1	9.776072E-1	1.085635E+0	1.078582E+0	9.910506E-1	1.101281E+0	9.966085E-1	1.108562E+0	1.155781E+0	1.092082E+0	9.867018E-1	1.048724E+0	1.020745E+0	9.991782E-1	9.905328E-1	1.061041E+0	9.946914E-1	9.921726E-1	1.047506E+0	1.164740E+0	1.053976E+0	1.067470E+0	1.033742E+0	1.122879E+0	1.165087E+0	1.132159E+0	9.939372E-1	9.932524E-1	1.064321E+0	9.433269E-1	9.813411E-1	1.080574E+0	9.708071E-1	9.429428E-1	1.083180E+0	1.168944E+0	1.006942E+0	1.061849E+0	1.001426E+0	1.141997E+0	1.113841E+0	9.981323E-1	1.044514E+0	1.043678E+0	1.073469E+0	8.723240E-1	1.101256E+0	1.045617E+0	9.593568E-1	9.638894E-1	1.104029E+0	1.130502E+0	1.109001E+0	1.073664E+0	1.030676E+0	1.115754E+0	1.191044E+0	1.085504E+0	9.663135E-1	1.015699E+0	1.078685E+0	9.214750E-1	1.012355E+0	1.069278E+0	9.852115E-1	9.905733E-1	1.130028E+0	1.154259E+0	1.080729E+0	9.254398E-1	1.044641E+0	1.001612E+0	1.117458E+0	1.021065E+0	1.069407E+0	1.017977E+0	1.063227E+0	9.938790E-1	1.036167E+0	1.005206E+0	9.907183E-1	9.729514E-1	1.112851E+0	1.099246E+0	1.029820E+0	1.012626E+0	1.103949E+0	1.052005E+0	1.100627E+0	1.031612E+0	1.017524E+0	1.032336E+0	1.015027E+0	9.911063E-1	1.057509E+0	1.025571E+0	9.987397E-1	9.951606E-1	1.163631E+0	1.093561E+0	1.078348E+0	9.323769E-1
2.850010E+2	8.772030E-1	9.073819E-1	8.701834E-1	9.870145E-1	8.614177E-1	8.887501E-1	8.858736E-1	1.034288E+0	8.858347E-1	9.158312E-1	8.559606E-1	9.459087E-1	1.007229E+0	9.615333E-1	8.841313E-1	8.398330E-1	8.977146E-1	9.271128E-1	7.689621E-1	8.978371E-1	9.007920E-1	8.846173E-1	8.068162E-1	9.977955E-1	9.323730E-1	9.262993E-1	8.005171E-1	8.828304E-1	9.120209E-1	1.005516E+0	8.039520E-1	8.748271E-1	8.574641E-1	8.835367E-1	8.184846E-1	8.480757E-1	8.499530E-1	8.547295E-1	8.794367E-1	9.389784E-1	8.304486E-1	8.851040E-1	8.323132E-1	9.425438E-1	9.625186E-1	9.668554E-1	8.505424E-1	7.911974E-1	9.405493E-1	8.907033E-1	8.379753E-1	8.870978E-1	8.851001E-1	8.641958E-1	8.764889E-1	9.197952E-1	9.443082E-1	9.110263E-1	8.557443E-1	9.427152E-1	9.405721E-1	9.314609E-1	7.778730E-1	8.884601E-1	9.060213E-1	8.497161E-1	8.243057E-1	8.837863E-1	7.693007E-1	9.383134E-1	8.851079E-1	9.954741E-1	9.419608E-1	9.318305E-1	8.901004E-1	9.412527E-1	9.536867E-1	1.014552E+0	8.573662E-1	9.365462E-1	9.044222E-1	8.828447E-1	8.784629E-1	8.867527E-1	8.341287E-1	8.825863E-1	9.380407E-1	9.050526E-1	8.983994E-1	8.989149E-1	8.439436E-1	9.775707E-1	1.023143E+0	9.574516E-1	8.509426E-1	8.861602E-1	9.274569E-1	8.433566E-1	8.588678E-1	9.098016E-1	8.672758E-1	8.671432E-1	9.511312E-1	1.002475E+0	9.132136E-1	9.188921E-1	8.858929E-1	9.502803E-1	9.661553E-1	8.801079E-1	9.427674E-1	8.971335E-1	8.961568E-1	7.878129E-1	8.880996E-1	9.087666E-1	9.154483E-1	8.077474E-1	9.743013E-1	9.817871E-1	9.151292E-1	8.487190E-1	8.880332E-1	9.926040E-1	9.633997E-1	9.270138E-1	8.498277E-1	9.060343E-1	8.817014E-1	8.030402E-1	9.269970E-1	9.474016E-1	8.194949E-1	8.527855E-1	9.570463E-1	1.013717E+0	9.039052E-1	7.901095E-1	8.675653E-1	9.032968E-1	1.032057E+0	7.893489E-1	9.077607E-1	8.954676E-1	9.346698E-1	8.665112E-1	9.126884E-1	8.802447E-1	9.157991E-1	8.542993E-1	9.991711E-1	9.431741E-1	8.956282E-1	9.484647E-1	9.560774E-1	9.300150E-1	9.515592E-1	8.689442E-1	9.218797E-1	8.303743E-1	8.938012E-1	8.630460E-1	8.590039E-1	8.966624E-1	8.815510E-1	8.354653E-1	1.008876E+0	1.037424E+0	8.564171E-1	9.323757E-1
2.851030E+2	7.726537E-1	7.762415E-1	8.123690E-1	8.584086E-1	7.634742E-1	7.610027E-1	7.929459E-1	9.291388E-1	8.420951E-1	8.612151E-1	8.276785E-1	8.803736E-1	9.428408E-1	8.852750E-1	7.775353E-1	8.088759E-1	8.421838E-1	8.725361E-1	7.364727E-1	8.263616E-1	8.401641E-1	7.928066E-1	7.669611E-1	8.912142E-1	8.355097E-1	8.402474E-1	7.564374E-1	8.311499E-1	8.903459E-1	8.677187E-1	7.572508E-1	8.513988E-1	8.406816E-1	8.226861E-1	7.374363E-1	7.921533E-1	8.008143E-1	7.744791E-1	7.261999E-1	9.420484E-1	8.097308E-1	8.150333E-1	8.094638E-1	8.492433E-1	8.644122E-1	8.915685E-1	7.816600E-1	7.968978E-1	8.059157E-1	8.447705E-1	7.506160E-1	7.916656E-1	8.104989E-1	8.007994E-1	8.246614E-1	8.856334E-1	9.153534E-1	7.998419E-1	7.313695E-1	8.595100E-1	8.871931E-1	8.437706E-1	7.310758E-1	8.269872E-1	8.251483E-1	8.617783E-1	7.775297E-1	8.198939E-1	7.484714E-1	8.356441E-1	7.632060E-1	8.588822E-1	8.292053E-1	8.690170E-1	7.991949E-1	8.779027E-1	9.063210E-1	9.377200E-1	8.271232E-1	8.773985E-1	8.110674E-1	8.327867E-1	8.185893E-1	7.911752E-1	8.016257E-1	7.958798E-1	8.463451E-1	8.628811E-1	8.523619E-1	8.225617E-1	8.158251E-1	8.743684E-1	9.405991E-1	9.364599E-1	7.719196E-1	8.482858E-1	8.470904E-1	8.292762E-1	7.739638E-1	8.603040E-1	7.813257E-1	8.447760E-1	8.685156E-1	8.711756E-1	7.738204E-1	8.551911E-1	8.488087E-1	9.420168E-1	9.138505E-1	8.675798E-1	8.343282E-1	8.218808E-1	8.846650E-1	8.764134E-1	8.274263E-1	8.200202E-1	7.972339E-1	8.543476E-1	8.786736E-1	8.675800E-1	8.835107E-1	8.235659E-1	8.243812E-1	8.259911E-1	9.151365E-1	8.595441E-1	7.711213E-1	8.353910E-1	8.222817E-1	8.049820E-1	8.349004E-1	8.642694E-1	8.403719E-1	7.878033E-1	9.339353E-1	9.290817E-1	7.830007E-1	8.153530E-1	9.166701E-1	8.339943E-1	9.297304E-1	7.823272E-1	7.700869E-1	8.248917E-1	8.542218E-1	7.993110E-1	8.432774E-1	7.974574E-1	8.103820E-1	8.120208E-1	8.947277E-1	8.311225E-1	8.655508E-1	8.124119E-1	8.901949E-1	8.644559E-1	9.185994E-1	8.076962E-1	7.951974E-1	8.250774E-1	8.369769E-1	7.662890E-1	8.434953E-1	8.405115E-1	7.820039E-1	7.714547E-1	9.043676E-1	8.788380E-1	8.443125E-1	8.055812E-1
2.852020E+2	6.895083E-1	7.664059E-1	7.786438E-1	8.724904E-1	7.107350E-1	7.088333E-1	7.356084E-1	9.227377E-1	8.057703E-1	7.881579E-1	7.494103E-1	8.257624E-1	7.930511E-1	7.914700E-1	7.119387E-1	7.074404E-1	7.621338E-1	7.906722E-1	6.632118E-1	7.090489E-1	7.470800E-1	7.320138E-1	6.872518E-1	8.507598E-1	7.790685E-1	7.709294E-1	6.866438E-1	7.868520E-1	8.106397E-1	8.238397E-1	6.726055E-1	7.924943E-1	6.874451E-1	7.718654E-1	7.012530E-1	7.362302E-1	6.782691E-1	7.176600E-1	7.261994E-1	8.315183E-1	6.711362E-1	7.838918E-1	7.910364E-1	8.271048E-1	8.493187E-1	8.169926E-1	7.535972E-1	6.974580E-1	7.780613E-1	7.896515E-1	7.200033E-1	7.134423E-1	7.338985E-1	7.448617E-1	7.142747E-1	8.440456E-1	8.214459E-1	7.731878E-1	6.710000E-1	7.568637E-1	8.053470E-1	7.674199E-1	6.568253E-1	7.800890E-1	7.757253E-1	7.901549E-1	7.016029E-1	7.843988E-1	7.036575E-1	7.494525E-1	7.443110E-1	7.675467E-1	7.770468E-1	8.098548E-1	7.584908E-1	8.746542E-1	7.705389E-1	8.448228E-1	7.505515E-1	7.910564E-1	7.592038E-1	8.066998E-1	7.095902E-1	7.341506E-1	7.307702E-1	7.236255E-1	7.752630E-1	8.192305E-1	7.864793E-1	7.815037E-1	7.490447E-1	9.049162E-1	8.426265E-1	8.233738E-1	7.154741E-1	7.451128E-1	7.372815E-1	7.708439E-1	7.356441E-1	7.910054E-1	7.279314E-1	7.770526E-1	7.872544E-1	8.313165E-1	7.593999E-1	8.092669E-1	7.496780E-1	8.097985E-1	8.084702E-1	8.095570E-1	7.399459E-1	7.750132E-1	7.639942E-1	8.028069E-1	7.603655E-1	8.084090E-1	7.438683E-1	7.653824E-1	8.260414E-1	8.248552E-1	8.260974E-1	7.725400E-1	7.515266E-1	8.232751E-1	8.749164E-1	8.811860E-1	6.961924E-1	7.802228E-1	7.791400E-1	8.049818E-1	7.944678E-1	7.867858E-1	7.790442E-1	7.565155E-1	8.260837E-1	8.739527E-1	8.049142E-1	7.697757E-1	7.522436E-1	7.566314E-1	8.220171E-1	8.206274E-1	7.988544E-1	7.563131E-1	7.225093E-1	8.211902E-1	7.870183E-1	6.904583E-1	7.381157E-1	7.956546E-1	8.108884E-1	8.271204E-1	8.115651E-1	7.876743E-1	7.964945E-1	7.814705E-1	8.324553E-1	8.261367E-1	7.388249E-1	7.416440E-1	7.596961E-1	7.356964E-1	7.698309E-1	7.883149E-1	7.631026E-1	7.437394E-1	7.898089E-1	8.311228E-1	7.293131E-1	7.367489E-1
2.853020E+2	5.330964E-1	5.819904E-1	5.722756E-1	6.556445E-1	5.723801E-1	5.877745E-1	5.668895E-1	6.548371E-1	6.033859E-1	5.640218E-1	5.823506E-1	6.260392E-1	6.893507E-1	6.591988E-1	5.684450E-1	5.941489E-1	5.977073E-1	6.549498E-1	5.434461E-1	6.437893E-1	5.786710E-1	5.775499E-1	5.571706E-1	6.648258E-1	5.990704E-1	6.131684E-1	5.788918E-1	6.178651E-1	6.050807E-1	6.406224E-1	5.202426E-1	6.017216E-1	6.268795E-1	6.066991E-1	5.623122E-1	6.579377E-1	5.569385E-1	5.442726E-1	5.742034E-1	6.948905E-1	5.796931E-1	6.097776E-1	5.691734E-1	6.713392E-1	6.863114E-1	6.699714E-1	5.648092E-1	6.037191E-1	6.000971E-1	6.214663E-1	6.117377E-1	5.640360E-1	5.733714E-1	6.329867E-1	5.884089E-1	6.650698E-1	6.445871E-1	6.193564E-1	5.953570E-1	6.270014E-1	6.701217E-1	6.479802E-1	5.694716E-1	5.937674E-1	6.049934E-1	5.843306E-1	5.558501E-1	5.706386E-1	5.666897E-1	6.188964E-1	5.888860E-1	6.317770E-1	5.998603E-1	5.892774E-1	6.051732E-1	6.277512E-1	6.426511E-1	7.218919E-1	5.832515E-1	6.333284E-1	6.087983E-1	5.937762E-1	5.875415E-1	6.056421E-1	5.253537E-1	6.224694E-1	5.968483E-1	6.549833E-1	6.785283E-1	6.064661E-1	6.056418E-1	6.316383E-1	6.651964E-1	6.859102E-1	5.875317E-1	6.373679E-1	5.853002E-1	6.272246E-1	5.801113E-1	6.400337E-1	5.833787E-1	6.092990E-1	6.145750E-1	6.562512E-1	6.127976E-1	5.914984E-1	5.585494E-1	6.255183E-1	6.830919E-1	7.238407E-1	6.033931E-1	6.014054E-1	6.162346E-1	6.399177E-1	6.054881E-1	5.753478E-1	5.918780E-1	5.928997E-1	6.622140E-1	6.490261E-1	6.588530E-1	6.072459E-1	5.337284E-1	6.820153E-1	6.520995E-1	7.016914E-1	6.477091E-1	5.777123E-1	5.691340E-1	6.017654E-1	6.327376E-1	6.390818E-1	6.061500E-1	6.072949E-1	6.376941E-1	6.627508E-1	6.084430E-1	5.930757E-1	6.086486E-1	5.817610E-1	6.619873E-1	6.527444E-1	6.344676E-1	5.712173E-1	5.994715E-1	6.797577E-1	6.080114E-1	5.647156E-1	5.770060E-1	6.006289E-1	6.517369E-1	6.582438E-1	6.203028E-1	6.377073E-1	6.522832E-1	6.470342E-1	6.601667E-1	6.812509E-1	5.671706E-1	5.655076E-1	6.187709E-1	6.432085E-1	6.062185E-1	5.755761E-1	5.747186E-1	5.622669E-1	7.043923E-1	6.458712E-1	6.344878E-1	6.570491E-1
2.854040E+2	3.651593E-1	3.377408E-1	3.924066E-1	4.143932E-1	3.621099E-1	3.891296E-1	3.810355E-1	4.381376E-1	3.876569E-1	3.767685E-1	3.771435E-1	3.919882E-1	4.650054E-1	4.169263E-1	3.786823E-1	3.833741E-1	4.130868E-1	4.014586E-1	3.567891E-1	3.734259E-1	4.029126E-1	3.753197E-1	3.855745E-1	4.205432E-1	4.297488E-1	4.402690E-1	3.903272E-1	3.955572E-1	4.680422E-1	4.751112E-1	3.521186E-1	4.290231E-1	3.977525E-1	3.760023E-1	3.669263E-1	3.671379E-1	3.512810E-1	3.679558E-1	4.073179E-1	4.661547E-1	3.739452E-1	4.073530E-1	3.849024E-1	4.301814E-1	4.697231E-1	4.334590E-1	3.894145E-1	3.858381E-1	4.376083E-1	3.988688E-1	3.728072E-1	3.598741E-1	3.695487E-1	3.849962E-1	4.248490E-1	4.133145E-1	4.332970E-1	3.657636E-1	3.727912E-1	4.318178E-1	4.203103E-1	4.325349E-1	3.635677E-1	3.725899E-1	4.110462E-1	4.056485E-1	3.741685E-1	4.002605E-1	3.583973E-1	3.989812E-1	4.048140E-1	4.499288E-1	3.935256E-1	4.453902E-1	3.718061E-1	4.336408E-1	4.445047E-1	4.718383E-1	3.670488E-1	4.293699E-1	3.865245E-1	3.907231E-1	4.002458E-1	4.329600E-1	3.784420E-1	3.737926E-1	3.985299E-1	4.293298E-1	3.951565E-1	4.307086E-1	3.771811E-1	4.557817E-1	4.476517E-1	4.705732E-1	3.648862E-1	4.205711E-1	4.158122E-1	4.146120E-1	3.900156E-1	4.263647E-1	4.114774E-1	4.048878E-1	4.195489E-1	4.514858E-1	3.724639E-1	4.463190E-1	3.610010E-1	4.445441E-1	4.423343E-1	4.126264E-1	3.918701E-1	4.099737E-1	3.675048E-1	4.054664E-1	4.051059E-1	4.044928E-1	3.750386E-1	4.040757E-1	4.464954E-1	4.156830E-1	4.391877E-1	4.160785E-1	4.048911E-1	4.167004E-1	4.485871E-1	4.674573E-1	3.895519E-1	3.657839E-1	4.209901E-1	3.881946E-1	4.103589E-1	4.187383E-1	3.928059E-1	3.858726E-1	4.969266E-1	4.562105E-1	3.915696E-1	3.827184E-1	4.055326E-1	4.173663E-1	4.250197E-1	4.657122E-1	4.132310E-1	4.067621E-1	4.030853E-1	4.461197E-1	3.997787E-1	4.092932E-1	3.721388E-1	4.083304E-1	4.371652E-1	4.029277E-1	4.205572E-1	3.965218E-1	4.165683E-1	4.246317E-1	4.017328E-1	4.514083E-1	3.613122E-1	3.575868E-1	4.020795E-1	4.240828E-1	4.100377E-1	3.857726E-1	3.806641E-1	3.319623E-1	4.260350E-1	4.606210E-1	4.125586E-1	4.650445E-1
2.855030E+2	2.778972E-1	2.598764E-1	2.992598E-1	3.261538E-1	3.148502E-1	2.854605E-1	2.610865E-1	3.247602E-1	2.690431E-1	2.930722E-1	2.969024E-1	3.186526E-1	2.955603E-1	2.772314E-1	2.832151E-1	2.944533E-1	2.710160E-1	2.930247E-1	2.650539E-1	2.568903E-1	3.061539E-1	2.655205E-1	3.047587E-1	3.225195E-1	2.863598E-1	3.159724E-1	2.917594E-1	3.364937E-1	2.967427E-1	3.627182E-1	2.727264E-1	3.179076E-1	2.992429E-1	2.683432E-1	2.525896E-1	3.008289E-1	3.045686E-1	2.789198E-1	2.801371E-1	3.479493E-1	2.567831E-1	3.061413E-1	2.890814E-1	3.210680E-1	3.172811E-1	3.503594E-1	2.739730E-1	3.034998E-1	2.936903E-1	2.822702E-1	2.869408E-1	3.121579E-1	2.703022E-1	2.756072E-1	2.976354E-1	3.390506E-1	3.159128E-1	3.116937E-1	2.971485E-1	3.338374E-1	3.213827E-1	3.161186E-1	2.805815E-1	2.978071E-1	2.844945E-1	2.985895E-1	2.819718E-1	2.511799E-1	2.738184E-1	2.982126E-1	2.670655E-1	3.371981E-1	2.838388E-1	3.161117E-1	2.842929E-1	3.069406E-1	3.308268E-1	3.356364E-1	2.782513E-1	3.035962E-1	3.109514E-1	2.955421E-1	2.582392E-1	3.349732E-1	2.581821E-1	3.015380E-1	3.324242E-1	3.079944E-1	3.348302E-1	3.111354E-1	2.864994E-1	3.335906E-1	3.604794E-1	3.310781E-1	2.683018E-1	2.912773E-1	2.845195E-1	3.061934E-1	2.983492E-1	3.257170E-1	2.773425E-1	3.023714E-1	2.963031E-1	2.990844E-1	3.147846E-1	3.092870E-1	2.975294E-1	3.139778E-1	3.100328E-1	3.361412E-1	2.934704E-1	3.083175E-1	3.157892E-1	3.155025E-1	3.069103E-1	2.916935E-1	2.980304E-1	2.691153E-1	3.071318E-1	3.277680E-1	2.902472E-1	2.931855E-1	2.936912E-1	3.614645E-1	3.343623E-1	3.350641E-1	2.957331E-1	3.079246E-1	2.915674E-1	3.066495E-1	3.025391E-1	2.879837E-1	2.825451E-1	3.088563E-1	3.036347E-1	3.374091E-1	2.948446E-1	2.908626E-1	3.274110E-1	2.997119E-1	3.242307E-1	3.444280E-1	2.817218E-1	2.842524E-1	2.887237E-1	3.054691E-1	3.077182E-1	2.835509E-1	2.992093E-1	3.074074E-1	3.547473E-1	3.364970E-1	2.971620E-1	3.161272E-1	3.148154E-1	3.067920E-1	2.976106E-1	3.605248E-1	2.865703E-1	2.754782E-1	2.732772E-1	3.138080E-1	3.216407E-1	3.082683E-1	3.063182E-1	2.864292E-1	3.295646E-1	3.736090E-1	3.479970E-1	3.020219E-1
2.856030E+2	2.235648E-1	2.820068E-1	2.446568E-1	3.158273E-1	2.504670E-1	2.245966E-1	2.531783E-1	2.863579E-1	2.786804E-1	2.710839E-1	2.844058E-1	2.679407E-1	3.206382E-1	2.772314E-1	2.556874E-1	2.555920E-1	2.969781E-1	2.772259E-1	2.268303E-1	2.685441E-1	2.926807E-1	2.748250E-1	2.577081E-1	2.890668E-1	2.840717E-1	3.103955E-1	2.354346E-1	2.889147E-1	2.855561E-1	3.265364E-1	2.709753E-1	2.737284E-1	2.569206E-1	2.536323E-1	2.714052E-1	3.024272E-1	2.997149E-1	2.595892E-1	2.689701E-1	3.011274E-1	2.589265E-1	2.856151E-1	2.846593E-1	3.163239E-1	3.044521E-1	3.006417E-1	2.644063E-1	2.534629E-1	2.975594E-1	2.808575E-1	2.331809E-1	2.722636E-1	2.889524E-1	2.706350E-1	2.633081E-1	2.989486E-1	3.119999E-1	2.637170E-1	2.891474E-1	2.677399E-1	2.971845E-1	2.752974E-1	2.443923E-1	2.724577E-1	2.687684E-1	2.691864E-1	2.507872E-1	2.827315E-1	2.517274E-1	2.906073E-1	2.865702E-1	2.968789E-1	2.746340E-1	2.730182E-1	2.700465E-1	3.028793E-1	3.031970E-1	3.272549E-1	2.731037E-1	2.723227E-1	2.790924E-1	3.089381E-1	2.520983E-1	2.883885E-1	2.744330E-1	2.389171E-1	2.869315E-1	3.124336E-1	2.792675E-1	2.888057E-1	2.886086E-1	2.832276E-1	2.956786E-1	3.107630E-1	2.438424E-1	2.592805E-1	2.837238E-1	2.709930E-1	2.577750E-1	3.059178E-1	2.695286E-1	2.632290E-1	2.712478E-1	2.975213E-1	2.627122E-1	2.952134E-1	3.046610E-1	2.710070E-1	2.884958E-1	2.880080E-1	2.914621E-1	2.805927E-1	2.854161E-1	2.841516E-1	2.749773E-1	3.066229E-1	2.635792E-1	2.600373E-1	3.286291E-1	2.850429E-1	3.035600E-1	2.874362E-1	2.614819E-1	2.953621E-1	2.780547E-1	3.516131E-1	2.447315E-1	2.689030E-1	2.793579E-1	2.898232E-1	2.531212E-1	2.847554E-1	2.505765E-1	2.516956E-1	2.882267E-1	2.900450E-1	2.812432E-1	2.915635E-1	2.939303E-1	2.997111E-1	2.803762E-1	2.895309E-1	2.543243E-1	2.829210E-1	2.934555E-1	3.312550E-1	2.704561E-1	2.843311E-1	2.614180E-1	2.685384E-1	3.106962E-1	3.116855E-1	2.840517E-1	2.898442E-1	2.935869E-1	2.993233E-1	2.916179E-1	3.091562E-1	2.859369E-1	2.615725E-1	2.990371E-1	3.152310E-1	2.634847E-1	2.655626E-1	2.433138E-1	2.606933E-1	3.084614E-1	3.020348E-1	3.157163E-1	2.186995E-1
2.858060E+2	3.017709E-1	3.016774E-1	3.129109E-1	3.101950E-1	2.867684E-1	2.700772E-1	2.861312E-1	3.284178E-1	3.061097E-1	2.810146E-1	3.245262E-1	2.913462E-1	3.294490E-1	3.305449E-1	3.253841E-1	3.135551E-1	3.077958E-1	3.138496E-1	3.096475E-1	2.631053E-1	3.104405E-1	3.151473E-1	3.180435E-1	3.474146E-1	3.412750E-1	3.088021E-1	2.893106E-1	3.545408E-1	3.289053E-1	3.727255E-1	2.826506E-1	3.145602E-1	3.087289E-1	3.158200E-1	2.880488E-1	3.064213E-1	2.839423E-1	2.941496E-1	2.999901E-1	3.364356E-1	2.889313E-1	3.231276E-1	2.957154E-1	3.092079E-1	3.346381E-1	3.340242E-1	3.013985E-1	2.844982E-1	3.362467E-1	3.183106E-1	3.041143E-1	3.019887E-1	3.089355E-1	3.010901E-1	3.238855E-1	3.256835E-1	3.190429E-1	2.949398E-1	2.680545E-1	3.105086E-1	3.377518E-1	3.214104E-1	2.787097E-1	3.085810E-1	3.384096E-1	3.174380E-1	3.084100E-1	3.363693E-1	2.820237E-1	3.260978E-1	2.853508E-1	3.380214E-1	3.014810E-1	3.307188E-1	2.876848E-1	3.475498E-1	3.379317E-1	3.517015E-1	2.917642E-1	3.144739E-1	3.531832E-1	3.124632E-1	3.019926E-1	3.518398E-1	2.997855E-1	2.967210E-1	3.288704E-1	3.398082E-1	3.102240E-1	3.024917E-1	3.223509E-1	3.368925E-1	3.519934E-1	3.561328E-1	2.871174E-1	3.245802E-1	3.179397E-1	3.061939E-1	2.810671E-1	3.248922E-1	3.033881E-1	2.824893E-1	3.159414E-1	3.334721E-1	3.027682E-1	3.033616E-1	3.203504E-1	3.280261E-1	3.392628E-1	3.335039E-1	3.168992E-1	3.340613E-1	3.166096E-1	3.155028E-1	3.188855E-1	2.925231E-1	3.027591E-1	3.175315E-1	3.271463E-1	3.195517E-1	3.426670E-1	3.276820E-1	3.136307E-1	3.306772E-1	3.303402E-1	3.446120E-1	2.988820E-1	3.247440E-1	3.135451E-1	3.047081E-1	3.235042E-1	3.097764E-1	3.223436E-1	3.022379E-1	3.596608E-1	3.327508E-1	3.114696E-1	2.922650E-1	3.259234E-1	3.069639E-1	3.473129E-1	3.080431E-1	3.091195E-1	2.722681E-1	3.447215E-1	3.312555E-1	2.857994E-1	2.804263E-1	2.925789E-1	3.258194E-1	3.412473E-1	3.068837E-1	2.933058E-1	3.254036E-1	3.162804E-1	3.275381E-1	3.343154E-1	3.354990E-1	2.859368E-1	2.681944E-1	2.997951E-1	3.294600E-1	2.836452E-1	3.114324E-1	2.842668E-1	3.022668E-1	3.577024E-1	3.581717E-1	3.237867E-1	3.201357E-1
2.860070E+2	4.285469E-1	4.582257E-1	4.823412E-1	4.979396E-1	4.175881E-1	4.285913E-1	4.423282E-1	5.478591E-1	4.499286E-1	4.257098E-1	5.132906E-1	4.840486E-1	5.205837E-1	4.715892E-1	5.133900E-1	4.531931E-1	4.678958E-1	4.797325E-1	4.523472E-1	4.658778E-1	4.470050E-1	5.000079E-1	5.012639E-1	4.757797E-1	4.869523E-1	5.406613E-1	5.072620E-1	5.227073E-1	5.197811E-1	5.875056E-1	5.622737E-1	5.026547E-1	4.495620E-1	4.729619E-1	5.478391E-1	4.486255E-1	4.562327E-1	4.394199E-1	5.003765E-1	5.175819E-1	4.496719E-1	4.491119E-1	5.020992E-1	4.752506E-1	4.878354E-1	5.442575E-1	4.863596E-1	4.700766E-1	5.366490E-1	4.631751E-1	4.818191E-1	4.380972E-1	4.621357E-1	4.602015E-1	4.719650E-1	5.432767E-1	5.107701E-1	4.632410E-1	4.629810E-1	5.220220E-1	4.815177E-1	5.028382E-1	4.378180E-1	4.796927E-1	5.061470E-1	5.104453E-1	4.338254E-1	4.822941E-1	4.726428E-1	4.826379E-1	4.797842E-1	5.025901E-1	4.610254E-1	4.797188E-1	4.681384E-1	5.132341E-1	4.981856E-1	5.731172E-1	4.680725E-1	4.871582E-1	4.909937E-1	4.957747E-1	4.416967E-1	4.803477E-1	4.473473E-1	4.948196E-1	5.200797E-1	4.922168E-1	4.753253E-1	4.465554E-1	4.699714E-1	5.193536E-1	4.862234E-1	5.091712E-1	4.169411E-1	4.675872E-1	4.754910E-1	4.491091E-1	4.343460E-1	5.162872E-1	4.668243E-1	4.688829E-1	4.764314E-1	5.397999E-1	4.517748E-1	4.759471E-1	4.665502E-1	5.015631E-1	5.061776E-1	5.108699E-1	4.835744E-1	4.693833E-1	5.021313E-1	4.831625E-1	4.554020E-1	4.857733E-1	4.506962E-1	4.912251E-1	5.191434E-1	5.364625E-1	4.774621E-1	4.728533E-1	4.394006E-1	5.000072E-1	5.266137E-1	5.400193E-1	4.701471E-1	4.680484E-1	4.372692E-1	4.593852E-1	4.889779E-1	4.962214E-1	4.847986E-1	4.574742E-1	5.403477E-1	5.090105E-1	4.414422E-1	4.900008E-1	4.695181E-1	4.834465E-1	4.796453E-1	5.186939E-1	4.509033E-1	4.839966E-1	4.969403E-1	5.117574E-1	4.896473E-1	4.444389E-1	4.682741E-1	4.608368E-1	5.501345E-1	4.573527E-1	4.737713E-1	5.364407E-1	5.219813E-1	4.735940E-1	5.223357E-1	5.185824E-1	4.531563E-1	4.675069E-1	4.725420E-1	4.987847E-1	4.604402E-1	4.276877E-1	4.638300E-1	4.428253E-1	5.265250E-1	5.055304E-1	5.154529E-1	4.831584E-1
2.862030E+2	6.623418E-1	6.287086E-1	6.533769E-1	6.762977E-1	5.888191E-1	6.419502E-1	6.466357E-1	7.188410E-1	6.530550E-1	6.739626E-1	7.250752E-1	6.533448E-1	7.008732E-1	6.875428E-1	7.787069E-1	6.277411E-1	6.431405E-1	6.614129E-1	6.957013E-1	6.538888E-1	6.693053E-1	6.122887E-1	6.252557E-1	7.270622E-1	6.867806E-1	6.546004E-1	6.688893E-1	6.761078E-1	6.966733E-1	7.260722E-1	7.193061E-1	6.552722E-1	6.670130E-1	6.541769E-1	7.359886E-1	6.483508E-1	6.436902E-1	5.864475E-1	6.771889E-1	6.680266E-1	6.268437E-1	6.805561E-1	7.217509E-1	6.752932E-1	6.621624E-1	7.175575E-1	7.727309E-1	6.334879E-1	6.937217E-1	6.497331E-1	6.737099E-1	6.227036E-1	6.206638E-1	6.342296E-1	6.227355E-1	7.200249E-1	6.743252E-1	6.513412E-1	6.593626E-1	6.923207E-1	7.234996E-1	7.031642E-1	6.842796E-1	6.355945E-1	7.030892E-1	6.521848E-1	6.914338E-1	6.518833E-1	6.209717E-1	6.645273E-1	7.022548E-1	7.214664E-1	6.443481E-1	7.010269E-1	6.465559E-1	7.146548E-1	6.852811E-1	7.449413E-1	6.083466E-1	6.802388E-1	6.717763E-1	6.995329E-1	6.550898E-1	6.698966E-1	6.189608E-1	6.236736E-1	6.935191E-1	6.764391E-1	6.634471E-1	6.727357E-1	6.211062E-1	7.290595E-1	7.145689E-1	7.692006E-1	6.239070E-1	6.602221E-1	6.990875E-1	6.997378E-1	6.274480E-1	7.052082E-1	6.771425E-1	6.291806E-1	6.978674E-1	6.882930E-1	6.152002E-1	6.818642E-1	6.705166E-1	7.122866E-1	6.946298E-1	7.528521E-1	6.616289E-1	6.614747E-1	6.983230E-1	6.637715E-1	6.589773E-1	6.375533E-1	6.317333E-1	6.661295E-1	7.482048E-1	7.262599E-1	6.763259E-1	6.697706E-1	6.341915E-1	6.928808E-1	7.293211E-1	7.538847E-1	6.168564E-1	6.254814E-1	6.944865E-1	6.483632E-1	6.769142E-1	6.560317E-1	6.753076E-1	6.277533E-1	6.979224E-1	7.209870E-1	6.462262E-1	6.554813E-1	6.830494E-1	6.381703E-1	6.950706E-1	6.584899E-1	6.262489E-1	6.484520E-1	6.846511E-1	7.180462E-1	6.569642E-1	6.186053E-1	6.618703E-1	6.913227E-1	7.639957E-1	7.270753E-1	6.449818E-1	7.304704E-1	6.698520E-1	6.694401E-1	7.058600E-1	7.609381E-1	6.786499E-1	6.125221E-1	6.854445E-1	6.645518E-1	6.760050E-1	6.641518E-1	6.597746E-1	6.599321E-1	6.641961E-1	6.739399E-1	6.486112E-1	6.896539E-1
2.864030E+2	8.220467E-1	7.606691E-1	8.244136E-1	9.213035E-1	7.305981E-1	7.830742E-1	8.179906E-1	9.812560E-1	8.472846E-1	8.158204E-1	9.006849E-1	8.124998E-1	9.014959E-1	8.636799E-1	9.122446E-1	7.693552E-1	8.364146E-1	8.847449E-1	8.606979E-1	8.038319E-1	8.205674E-1	8.083158E-1	7.641936E-1	8.678749E-1	8.393228E-1	8.235153E-1	8.237814E-1	8.270490E-1	8.630778E-1	9.085201E-1	8.850957E-1	8.098975E-1	8.100343E-1	7.905882E-1	8.170367E-1	8.456791E-1	8.117337E-1	7.639352E-1	8.173975E-1	8.576153E-1	7.940142E-1	7.661969E-1	8.175714E-1	8.666383E-1	8.772417E-1	9.178480E-1	9.194249E-1	7.905640E-1	8.360925E-1	8.278103E-1	8.932278E-1	7.627231E-1	8.244865E-1	7.964493E-1	8.724503E-1	9.034566E-1	8.652693E-1	8.219260E-1	8.833831E-1	8.214064E-1	8.715364E-1	8.823243E-1	8.483795E-1	8.124108E-1	8.303899E-1	8.270982E-1	8.527784E-1	8.285708E-1	7.711947E-1	8.356437E-1	8.576792E-1	8.654647E-1	7.724447E-1	7.879430E-1	8.697481E-1	8.275474E-1	8.889538E-1	9.167658E-1	9.210689E-1	8.685598E-1	8.451494E-1	8.539382E-1	9.199133E-1	8.433811E-1	8.074763E-1	7.808275E-1	8.498995E-1	8.584419E-1	8.174353E-1	8.665011E-1	8.720618E-1	8.628105E-1	8.364553E-1	8.707750E-1	8.804200E-1	8.300021E-1	8.168528E-1	8.088601E-1	8.468467E-1	8.215288E-1	8.008594E-1	8.217873E-1	9.003428E-1	9.032182E-1	8.202845E-1	8.611168E-1	8.559400E-1	8.783867E-1	8.792365E-1	8.688989E-1	8.430307E-1	8.212205E-1	8.731721E-1	7.891755E-1	8.170479E-1	7.843564E-1	7.776441E-1	8.295341E-1	8.556937E-1	8.560774E-1	8.194422E-1	8.853712E-1	8.105772E-1	9.065816E-1	9.384633E-1	9.123746E-1	8.095304E-1	7.755132E-1	8.255370E-1	8.062758E-1	8.146851E-1	8.674971E-1	8.397195E-1	7.697529E-1	8.639019E-1	9.096707E-1	8.570539E-1	8.349862E-1	8.601252E-1	7.824190E-1	9.204976E-1	9.074413E-1	7.974849E-1	8.248914E-1	8.518554E-1	8.938598E-1	8.140519E-1	8.021434E-1	7.719278E-1	8.379330E-1	8.940172E-1	8.863482E-1	8.377869E-1	8.325098E-1	8.675014E-1	8.096859E-1	8.684107E-1	9.473144E-1	8.300357E-1	7.568740E-1	7.968204E-1	8.374345E-1	8.194576E-1	8.239034E-1	7.927153E-1	7.965313E-1	9.314994E-1	9.167308E-1	9.108918E-1	9.251307E-1
2.866200E+2	8.088751E-1	8.180427E-1	8.212006E-1	9.091006E-1	7.840215E-1	7.997956E-1	8.516022E-1	9.465108E-1	8.873170E-1	8.619243E-1	9.901341E-1	8.593092E-1	9.340297E-1	9.284656E-1	1.002440E+0	8.121688E-1	9.373778E-1	9.026971E-1	8.600609E-1	8.566610E-1	8.615985E-1	8.684883E-1	9.114343E-1	9.674545E-1	8.553393E-1	8.896474E-1	8.880652E-1	9.328702E-1	9.371910E-1	1.003208E+0	9.528122E-1	8.708105E-1	8.881120E-1	8.447529E-1	9.443995E-1	9.095909E-1	7.996010E-1	8.471143E-1	8.602046E-1	9.151833E-1	8.590246E-1	9.183699E-1	9.156042E-1	8.974751E-1	9.066737E-1	9.462575E-1	9.863937E-1	8.380676E-1	8.786498E-1	8.899965E-1	8.992013E-1	8.972668E-1	8.111647E-1	8.523865E-1	9.155278E-1	9.220230E-1	9.364825E-1	8.683802E-1	8.942937E-1	8.766170E-1	9.227793E-1	9.496030E-1	9.762898E-1	8.174805E-1	9.202493E-1	8.874121E-1	9.734479E-1	8.222607E-1	7.977041E-1	8.781058E-1	9.356970E-1	9.354061E-1	8.460805E-1	8.887369E-1	9.002760E-1	9.103908E-1	8.952689E-1	1.003376E+0	9.757628E-1	8.835175E-1	8.836768E-1	8.659239E-1	9.391032E-1	9.028161E-1	8.061761E-1	8.332120E-1	8.953915E-1	9.272479E-1	8.793493E-1	8.816278E-1	9.219721E-1	8.652879E-1	9.367422E-1	9.682863E-1	9.425097E-1	8.580816E-1	8.876713E-1	9.137583E-1	1.006136E+0	8.850535E-1	8.067203E-1	8.721136E-1	9.504533E-1	9.735576E-1	8.819700E-1	9.470396E-1	9.878759E-1	9.601965E-1	9.600025E-1	9.836253E-1	9.682043E-1	9.057146E-1	9.380229E-1	8.702794E-1	9.104530E-1	8.249970E-1	8.188502E-1	8.555580E-1	8.920175E-1	9.826077E-1	9.093048E-1	8.975890E-1	9.217769E-1	9.527621E-1	9.947714E-1	9.785709E-1	1.006611E+0	8.535564E-1	8.548397E-1	8.580508E-1	9.981284E-1	8.884830E-1	8.769078E-1	8.082608E-1	1.000467E+0	9.104466E-1	8.978607E-1	8.777586E-1	8.697973E-1	8.871805E-1	9.181898E-1	9.910631E-1	8.728285E-1	8.302182E-1	8.770944E-1	9.055812E-1	8.827323E-1	8.294794E-1	8.236419E-1	9.224901E-1	9.707513E-1	9.191628E-1	8.686354E-1	8.796653E-1	9.304571E-1	8.403914E-1	8.938800E-1	9.940732E-1	8.807082E-1	8.204421E-1	9.028929E-1	8.993299E-1	8.365163E-1	8.602831E-1	8.273673E-1	8.334858E-1	9.164252E-1	9.223440E-1	8.422956E-1	9.830938E-1
2.868030E+2	1.023737E+0	9.401670E-1	1.009100E+0	1.176636E+0	9.723752E-1	1.003790E+0	9.788005E-1	1.206184E+0	1.038550E+0	1.076840E+0	1.117073E+0	1.044209E+0	1.135330E+0	1.128222E+0	1.167605E+0	1.029531E+0	1.011659E+0	1.115974E+0	1.033339E+0	1.034573E+0	1.048379E+0	1.007444E+0	9.778584E-1	1.089595E+0	1.084152E+0	1.118321E+0	1.041733E+0	1.026386E+0	1.151139E+0	1.122530E+0	1.107510E+0	1.036816E+0	9.691100E-1	9.657857E-1	1.106497E+0	9.878831E-1	9.876650E-1	9.455234E-1	9.960711E-1	1.114751E+0	9.783296E-1	1.028783E+0	1.045330E+0	1.064309E+0	1.117979E+0	1.099672E+0	1.137552E+0	9.723428E-1	1.042686E+0	1.070195E+0	1.116479E+0	9.926992E-1	9.896756E-1	9.965820E-1	1.018510E+0	1.149271E+0	1.020999E+0	1.007743E+0	1.030306E+0	1.089686E+0	1.082914E+0	1.108352E+0	1.124791E+0	9.885926E-1	9.771608E-1	1.028398E+0	1.132759E+0	1.004470E+0	9.207863E-1	1.030209E+0	1.032000E+0	1.109850E+0	1.001790E+0	1.075717E+0	1.065804E+0	1.101252E+0	1.135255E+0	1.153548E+0	1.112820E+0	1.010651E+0	1.041490E+0	1.051351E+0	1.114885E+0	1.067466E+0	9.686895E-1	9.686896E-1	1.110769E+0	1.084096E+0	1.066676E+0	1.058826E+0	1.118097E+0	1.079122E+0	1.131916E+0	1.149088E+0	1.136932E+0	1.036351E+0	1.077052E+0	9.933124E-1	1.152653E+0	1.069849E+0	9.903411E-1	1.001967E+0	1.136676E+0	1.122051E+0	1.033380E+0	1.101107E+0	1.146200E+0	1.104811E+0	1.104610E+0	1.094398E+0	1.202487E+0	1.040377E+0	1.080036E+0	1.044755E+0	1.098861E+0	1.001659E+0	1.023530E+0	1.047407E+0	1.072153E+0	1.068059E+0	1.035778E+0	1.106004E+0	1.186355E+0	1.134770E+0	1.099343E+0	1.113510E+0	1.202433E+0	1.045301E+0	1.060777E+0	1.050912E+0	1.194300E+0	1.061207E+0	1.029577E+0	9.887679E-1	1.167847E+0	1.104565E+0	1.038412E+0	1.009583E+0	1.116066E+0	1.033846E+0	1.145156E+0	1.118093E+0	1.130367E+0	9.933419E-1	1.053763E+0	1.132967E+0	1.146494E+0	9.536604E-1	1.022543E+0	1.032277E+0	1.134166E+0	1.102447E+0	9.989718E-1	1.123169E+0	1.093700E+0	1.065282E+0	1.066918E+0	1.160692E+0	1.070097E+0	1.015781E+0	1.027907E+0	9.953754E-1	1.082323E+0	9.575578E-1	9.773185E-1	9.489678E-1	1.177700E+0	1.116015E+0	1.011769E+0	1.113513E+0
2.870190E+2	8.278099E-1	7.819796E-1	8.509125E-1	9.175492E-1	7.799120E-1	8.211977E-1	7.988781E-1	9.062801E-1	8.465436E-1	8.640524E-1	9.223897E-1	9.100202E-1	9.028512E-1	9.163180E-1	9.432853E-1	8.141445E-1	8.804057E-1	8.474026E-1	8.333051E-1	8.465616E-1	8.732333E-1	7.524853E-1	7.902094E-1	8.849907E-1	8.500004E-1	9.207217E-1	8.745963E-1	8.918535E-1	8.756629E-1	8.569410E-1	9.031925E-1	8.112369E-1	8.436006E-1	7.725344E-1	9.386106E-1	7.937509E-1	8.329670E-1	7.352327E-1	8.130549E-1	9.458864E-1	7.754396E-1	8.185729E-1	9.067588E-1	8.824521E-1	9.021452E-1	9.086147E-1	8.971018E-1	7.620622E-1	8.252603E-1	8.511308E-1	9.104007E-1	7.736740E-1	8.304808E-1	8.126091E-1	8.401419E-1	8.900896E-1	8.918761E-1	7.747110E-1	8.455619E-1	8.494003E-1	8.629953E-1	8.369678E-1	8.752093E-1	8.155789E-1	8.723243E-1	8.105110E-1	9.381963E-1	8.601220E-1	7.945485E-1	8.286727E-1	8.796222E-1	8.827443E-1	8.200012E-1	8.609824E-1	8.880649E-1	8.803389E-1	9.086890E-1	9.223539E-1	9.223558E-1	9.011934E-1	8.295902E-1	8.588734E-1	8.807651E-1	8.538227E-1	8.178768E-1	8.229753E-1	9.231130E-1	8.872963E-1	8.396609E-1	8.722635E-1	8.966650E-1	9.115211E-1	9.066563E-1	9.405228E-1	9.556798E-1	8.502446E-1	8.399291E-1	8.257566E-1	9.024475E-1	8.842278E-1	7.780696E-1	8.422909E-1	9.531617E-1	8.985295E-1	8.186818E-1	8.951895E-1	8.773354E-1	9.387112E-1	9.038502E-1	9.196686E-1	9.528083E-1	8.430046E-1	8.592177E-1	8.014435E-1	9.527650E-1	8.507088E-1	8.310091E-1	8.525322E-1	9.439081E-1	8.807266E-1	8.760218E-1	8.537500E-1	9.187092E-1	8.902822E-1	8.885910E-1	9.537472E-1	9.279045E-1	8.125162E-1	8.914693E-1	8.677584E-1	9.172632E-1	8.521623E-1	8.462441E-1	8.311253E-1	9.773564E-1	9.337402E-1	8.638558E-1	8.104446E-1	9.456875E-1	8.347997E-1	9.620441E-1	9.336130E-1	9.536519E-1	7.949295E-1	9.204726E-1	9.055810E-1	9.360688E-1	7.607499E-1	8.395544E-1	8.774838E-1	9.437524E-1	9.159611E-1	8.740343E-1	8.649775E-1	9.655952E-1	8.619667E-1	8.729060E-1	9.571930E-1	9.567177E-1	7.674691E-1	8.551607E-1	8.580662E-1	9.419729E-1	8.420936E-1	7.876745E-1	8.249072E-1	9.184353E-1	9.490100E-1	9.088739E-1	9.722262E-1
2.872140E+2	6.969172E-1	6.606741E-1	7.047682E-1	7.701696E-1	6.285438E-1	6.506451E-1	6.295005E-1	8.157605E-1	7.575828E-1	6.987877E-1	7.553300E-1	7.680292E-1	7.157844E-1	7.557027E-1	7.968639E-1	6.712131E-1	6.943436E-1	7.554852E-1	7.307391E-1	6.740880E-1	6.852273E-1	6.712210E-1	6.850380E-1	7.332867E-1	7.302555E-1	7.430421E-1	7.080713E-1	7.105621E-1	7.421199E-1	7.645636E-1	7.584184E-1	7.168551E-1	6.925524E-1	6.688871E-1	7.142787E-1	6.978830E-1	6.133573E-1	6.356522E-1	7.268201E-1	7.724159E-1	6.975701E-1	6.833871E-1	7.630272E-1	7.440824E-1	7.270629E-1	7.537806E-1	8.071727E-1	6.968245E-1	6.991379E-1	7.239321E-1	7.200027E-1	6.665078E-1	6.732846E-1	6.994907E-1	6.886980E-1	7.697819E-1	7.729272E-1	6.947494E-1	6.630001E-1	7.047630E-1	7.469861E-1	7.621279E-1	7.572822E-1	6.736200E-1	6.806247E-1	6.846042E-1	7.809188E-1	6.645032E-1	6.418010E-1	7.095249E-1	7.619866E-1	7.502659E-1	7.011091E-1	7.207471E-1	7.340690E-1	7.512023E-1	7.215948E-1	7.924375E-1	7.608463E-1	6.775193E-1	7.095624E-1	7.101087E-1	7.556461E-1	6.996138E-1	6.950172E-1	6.874981E-1	7.553607E-1	7.726193E-1	7.674281E-1	6.914641E-1	7.469362E-1	7.670391E-1	7.647121E-1	7.759722E-1	7.549860E-1	6.837304E-1	7.142056E-1	7.342348E-1	7.957536E-1	7.497567E-1	6.628182E-1	6.627317E-1	7.798058E-1	7.922390E-1	6.768857E-1	7.033455E-1	7.318484E-1	7.453418E-1	7.853955E-1	7.541713E-1	7.821174E-1	7.142840E-1	7.065324E-1	6.883075E-1	7.332225E-1	6.997579E-1	7.154964E-1	7.090989E-1	7.986136E-1	7.040759E-1	7.295782E-1	7.100154E-1	7.799013E-1	7.779988E-1	7.751718E-1	7.691608E-1	7.648252E-1	7.122706E-1	6.944865E-1	7.150228E-1	8.363979E-1	7.319010E-1	6.681309E-1	6.572364E-1	8.253829E-1	7.667993E-1	7.074346E-1	7.417278E-1	7.805155E-1	6.905516E-1	7.281537E-1	7.491334E-1	8.036493E-1	7.163643E-1	7.501131E-1	8.055625E-1	8.133211E-1	6.881155E-1	7.202142E-1	7.001878E-1	7.966790E-1	7.678941E-1	7.329008E-1	7.119179E-1	8.191873E-1	7.615543E-1	7.702816E-1	7.958426E-1	8.230678E-1	6.217920E-1	7.096893E-1	7.413880E-1	7.729323E-1	6.949952E-1	6.843469E-1	6.500336E-1	7.978475E-1	7.609511E-1	7.172075E-1	7.802219E-1
2.874030E+2	5.800196E-1	6.155950E-1	6.413325E-1	6.894385E-1	5.929284E-1	6.245603E-1	6.202737E-1	7.343850E-1	6.493479E-1	6.590668E-1	7.336250E-1	6.572456E-1	7.022291E-1	6.814689E-1	6.984682E-1	5.869033E-1	6.207841E-1	6.865467E-1	6.562039E-1	6.251431E-1	6.019418E-1	6.457871E-1	6.341124E-1	6.772734E-1	6.577984E-1	6.458355E-1	6.548082E-1	6.933353E-1	7.113559E-1	7.052872E-1	6.848644E-1	6.452316E-1	5.823673E-1	6.107118E-1	7.490139E-1	6.547418E-1	6.254904E-1	5.618454E-1	6.350019E-1	6.641880E-1	6.189858E-1	6.451671E-1	6.797360E-1	6.254809E-1	7.014047E-1	6.941193E-1	7.331875E-1	5.878844E-1	6.906268E-1	7.189848E-1	6.826699E-1	6.086239E-1	6.006811E-1	6.392018E-1	6.462934E-1	6.732382E-1	6.406748E-1	6.559110E-1	6.571813E-1	6.270009E-1	6.729687E-1	6.963601E-1	6.749202E-1	6.292571E-1	6.671459E-1	6.416297E-1	6.927900E-1	6.124435E-1	6.298085E-1	6.303045E-1	6.918934E-1	6.548171E-1	5.975589E-1	6.396741E-1	6.716563E-1	6.732333E-1	6.647556E-1	7.603077E-1	7.389695E-1	6.598433E-1	6.206529E-1	6.953021E-1	6.850264E-1	6.401789E-1	6.118104E-1	6.152440E-1	6.949410E-1	6.720009E-1	6.626525E-1	6.691339E-1	6.850756E-1	6.621857E-1	7.191972E-1	6.913276E-1	7.066936E-1	6.288786E-1	6.505485E-1	6.582006E-1	6.755343E-1	6.392090E-1	6.139824E-1	6.571395E-1	7.154742E-1	7.054880E-1	6.336260E-1	6.751981E-1	7.261432E-1	6.924532E-1	6.907841E-1	6.823014E-1	7.540035E-1	6.198886E-1	6.720550E-1	6.603637E-1	6.869192E-1	6.251127E-1	6.364620E-1	6.600775E-1	7.148460E-1	7.024325E-1	6.630130E-1	6.726445E-1	6.679354E-1	7.200462E-1	6.577299E-1	7.214236E-1	7.799364E-1	6.409551E-1	6.432062E-1	6.211816E-1	7.188444E-1	6.673315E-1	6.413812E-1	6.205329E-1	7.175322E-1	7.046813E-1	6.326241E-1	6.302389E-1	7.195068E-1	6.454235E-1	6.989181E-1	7.248769E-1	7.680326E-1	6.484513E-1	6.270766E-1	6.539717E-1	7.000720E-1	6.334441E-1	6.194384E-1	6.190407E-1	7.441015E-1	6.678481E-1	6.287863E-1	6.616706E-1	6.962056E-1	6.727591E-1	6.654092E-1	7.339366E-1	7.128543E-1	6.648326E-1	6.361961E-1	6.538801E-1	7.062469E-1	6.499161E-1	6.339425E-1	6.269375E-1	7.114265E-1	6.809575E-1	6.970318E-1	6.353126E-1
2.876090E+2	4.483047E-1	4.590456E-1	4.719018E-1	5.129589E-1	4.326564E-1	5.028323E-1	4.719853E-1	5.176859E-1	5.107187E-1	4.930933E-1	5.376260E-1	4.559616E-1	5.124505E-1	4.925098E-1	5.649309E-1	4.413371E-1	5.104448E-1	5.278456E-1	5.147781E-1	4.829693E-1	4.764005E-1	4.795361E-1	4.829970E-1	5.170112E-1	5.243246E-1	5.318973E-1	5.109353E-1	5.063011E-1	5.057971E-1	5.474745E-1	5.365880E-1	5.080093E-1	4.787497E-1	5.030534E-1	5.355373E-1	4.885706E-1	4.562327E-1	4.663652E-1	4.755612E-1	5.498196E-1	4.768192E-1	4.887480E-1	5.102071E-1	5.052968E-1	5.157577E-1	5.179783E-1	5.514153E-1	4.548760E-1	5.157581E-1	5.190015E-1	5.303516E-1	4.490486E-1	4.421529E-1	4.527430E-1	4.477333E-1	5.239682E-1	5.358122E-1	4.640023E-1	5.320784E-1	5.150234E-1	5.370310E-1	5.156888E-1	5.276676E-1	4.815942E-1	4.979098E-1	4.795339E-1	5.294117E-1	4.665186E-1	4.556002E-1	4.661593E-1	4.913647E-1	5.132873E-1	4.709972E-1	5.198901E-1	5.074851E-1	5.107982E-1	5.573928E-1	5.605442E-1	5.530091E-1	5.129933E-1	5.050709E-1	4.830843E-1	4.938935E-1	5.004268E-1	4.369460E-1	4.875936E-1	5.342961E-1	5.558443E-1	5.269198E-1	4.962573E-1	5.205837E-1	5.259582E-1	5.070517E-1	5.606355E-1	5.241872E-1	4.891360E-1	5.001586E-1	4.716368E-1	5.290187E-1	5.303117E-1	4.759400E-1	4.831730E-1	4.940384E-1	5.163543E-1	4.629891E-1	4.989088E-1	5.564092E-1	4.875152E-1	5.538676E-1	5.352657E-1	5.679157E-1	5.037095E-1	5.341455E-1	5.172399E-1	5.512017E-1	5.056782E-1	4.783915E-1	4.954615E-1	5.636208E-1	5.175650E-1	4.999281E-1	4.908204E-1	5.360292E-1	5.588653E-1	5.113294E-1	5.495667E-1	5.645951E-1	4.815036E-1	5.032019E-1	4.677984E-1	5.511247E-1	5.373844E-1	4.495675E-1	4.574741E-1	5.522529E-1	5.734574E-1	4.769589E-1	4.956105E-1	5.729361E-1	4.769997E-1	5.427344E-1	5.142255E-1	5.324108E-1	4.220757E-1	5.032500E-1	5.461389E-1	5.722102E-1	5.014530E-1	4.775560E-1	4.942509E-1	5.991593E-1	5.389894E-1	5.069338E-1	5.155682E-1	5.607791E-1	4.852114E-1	5.081024E-1	5.284612E-1	5.285324E-1	4.555877E-1	5.036060E-1	5.130138E-1	5.674477E-1	4.980732E-1	4.833616E-1	4.771398E-1	5.767696E-1	4.985132E-1	4.609794E-1	5.193854E-1
2.878030E+2	3.511644E-1	3.377408E-1	3.715290E-1	4.021901E-1	3.169048E-1	3.122140E-1	3.573095E-1	4.015652E-1	3.476246E-1	3.767685E-1	3.850358E-1	3.670224E-1	3.877385E-1	3.818336E-1	4.167514E-1	3.563683E-1	3.460176E-1	3.942779E-1	3.752638E-1	3.982869E-1	3.398361E-1	3.523674E-1	3.346490E-1	3.614176E-1	3.679699E-1	3.518275E-1	3.744089E-1	3.799714E-1	4.114083E-1	4.204545E-1	3.988192E-1	3.855136E-1	3.999421E-1	3.505918E-1	3.879124E-1	3.439698E-1	3.518876E-1	3.363245E-1	3.496213E-1	4.009117E-1	3.810890E-1	3.705492E-1	3.782688E-1	3.732529E-1	4.176512E-1	3.936847E-1	4.283201E-1	3.554364E-1	3.625544E-1	3.875622E-1	3.899801E-1	3.465756E-1	3.482345E-1	3.452185E-1	3.979251E-1	4.021751E-1	3.816477E-1	3.650021E-1	3.757009E-1	3.836056E-1	3.804543E-1	3.962489E-1	3.754226E-1	3.675197E-1	3.736050E-1	3.611660E-1	3.870488E-1	3.836963E-1	3.432494E-1	3.641234E-1	3.517872E-1	4.153680E-1	3.751167E-1	3.555521E-1	3.623086E-1	3.711029E-1	3.987177E-1	3.789421E-1	4.043696E-1	3.709025E-1	3.665198E-1	3.681615E-1	4.010131E-1	3.711159E-1	3.238371E-1	3.406762E-1	3.871568E-1	3.723612E-1	3.626117E-1	3.781250E-1	3.792903E-1	3.756966E-1	3.735937E-1	3.838963E-1	3.956180E-1	3.742083E-1	3.784142E-1	3.336500E-1	3.915179E-1	4.007903E-1	3.307358E-1	3.384080E-1	3.856907E-1	3.834913E-1	3.308071E-1	3.796547E-1	3.930938E-1	3.966147E-1	4.231043E-1	3.882298E-1	4.300243E-1	3.631062E-1	3.748928E-1	3.604842E-1	3.843490E-1	3.505818E-1	3.500450E-1	3.568702E-1	3.946048E-1	3.943202E-1	3.801105E-1	3.758326E-1	4.417020E-1	4.157952E-1	3.979095E-1	3.821654E-1	4.052927E-1	3.469466E-1	3.566855E-1	3.603663E-1	4.058662E-1	3.808033E-1	3.608366E-1	3.419491E-1	3.918761E-1	4.010801E-1	3.507640E-1	3.532686E-1	4.166933E-1	3.980258E-1	4.073240E-1	4.318803E-1	4.111762E-1	3.495025E-1	3.786353E-1	4.000180E-1	4.012402E-1	3.702429E-1	3.469451E-1	3.878728E-1	4.130085E-1	3.733135E-1	3.696569E-1	3.996144E-1	4.011958E-1	3.922673E-1	3.972388E-1	4.270407E-1	4.126188E-1	3.344111E-1	3.816231E-1	3.842411E-1	4.162415E-1	3.596738E-1	3.560920E-1	3.484600E-1	4.260350E-1	3.722063E-1	3.701899E-1	3.346265E-1
2.880040E+2	3.149423E-1	3.303640E-1	3.458330E-1	3.881094E-1	3.080014E-1	3.168958E-1	3.190839E-1	3.777916E-1	3.402114E-1	3.491062E-1	3.784594E-1	3.717037E-1	3.951941E-1	3.885821E-1	3.950815E-1	4.011580E-1	3.510662E-1	3.519097E-1	3.497817E-1	3.369111E-1	3.343244E-1	3.653948E-1	3.185968E-1	3.956484E-1	3.389870E-1	4.028211E-1	3.511446E-1	4.095024E-1	3.855386E-1	4.212241E-1	3.865605E-1	4.229991E-1	3.488627E-1	3.298626E-1	3.813995E-1	3.895071E-1	3.167016E-1	3.087936E-1	3.347316E-1	4.124244E-1	3.317949E-1	3.514388E-1	3.605792E-1	3.542761E-1	3.225634E-1	3.709571E-1	3.970677E-1	4.061064E-1	3.733867E-1	3.317370E-1	3.533938E-1	4.005495E-1	3.449035E-1	3.327878E-1	3.454245E-1	3.902932E-1	3.871262E-1	3.558635E-1	3.662453E-1	4.115996E-1	3.462927E-1	3.372855E-1	3.585758E-1	3.675197E-1	3.339165E-1	3.596578E-1	3.646774E-1	3.560884E-1	3.457738E-1	3.501808E-1	3.865294E-1	3.495408E-1	3.290945E-1	3.270668E-1	3.385648E-1	3.735395E-1	3.450369E-1	3.894183E-1	3.902136E-1	3.505066E-1	3.324384E-1	3.477157E-1	3.772175E-1	3.614777E-1	3.153863E-1	3.454929E-1	3.821813E-1	3.731010E-1	3.697557E-1	3.702019E-1	3.996759E-1	3.864292E-1	4.129366E-1	3.710304E-1	3.862095E-1	3.180506E-1	3.625001E-1	3.526584E-1	3.779933E-1	3.306668E-1	3.222712E-1	3.278452E-1	3.511545E-1	3.748940E-1	3.388178E-1	3.618771E-1	4.102103E-1	3.305054E-1	3.861834E-1	3.592183E-1	3.771430E-1	3.254799E-1	3.371318E-1	3.700260E-1	3.987194E-1	3.530703E-1	3.257264E-1	3.193475E-1	3.871918E-1	3.663841E-1	3.759496E-1	3.643345E-1	3.933874E-1	3.578422E-1	3.818218E-1	4.209923E-1	4.166269E-1	3.523285E-1	3.721510E-1	3.519526E-1	3.774143E-1	3.533611E-1	3.503977E-1	3.281105E-1	3.792705E-1	3.964216E-1	3.492525E-1	3.434517E-1	3.772604E-1	3.222752E-1	3.796263E-1	3.712379E-1	3.961078E-1	3.475046E-1	3.407776E-1	3.664180E-1	3.793207E-1	3.397836E-1	3.482715E-1	3.415033E-1	4.087450E-1	3.965247E-1	3.418926E-1	4.027062E-1	4.092482E-1	3.764996E-1	3.567882E-1	3.901604E-1	3.961503E-1	3.079245E-1	3.732886E-1	3.543604E-1	3.852248E-1	3.446480E-1	3.233294E-1	3.418606E-1	4.250303E-1	3.595751E-1	3.782601E-1	3.563631E-1
2.882240E+2	4.408957E-1	4.164254E-1	4.719012E-1	5.279784E-1	4.306016E-1	4.439746E-1	4.910980E-1	5.533454E-1	4.699451E-1	4.696857E-1	5.159218E-1	5.238367E-1	5.043169E-1	4.864361E-1	4.981620E-1	5.401371E-1	5.032333E-1	5.019934E-1	4.880224E-1	5.264760E-1	4.886484E-1	4.782959E-1	4.691591E-1	5.932525E-1	4.915280E-1	4.912620E-1	4.888955E-1	5.333723E-1	5.134886E-1	5.513240E-1	5.330855E-1	5.327767E-1	5.064782E-1	4.508955E-1	4.942893E-1	5.205268E-1	4.883856E-1	4.733940E-1	4.774224E-1	5.674741E-1	4.711038E-1	4.646833E-1	5.197896E-1	5.479936E-1	4.712325E-1	5.364446E-1	5.271788E-1	5.251803E-1	4.600472E-1	5.147609E-1	5.004855E-1	5.530852E-1	4.474810E-1	4.738750E-1	5.089846E-1	5.974891E-1	5.076393E-1	4.929400E-1	5.037124E-1	5.500165E-1	5.242204E-1	5.134212E-1	5.370263E-1	4.974380E-1	4.507338E-1	4.772721E-1	5.151752E-1	5.966679E-1	4.663306E-1	4.953131E-1	5.139164E-1	5.280987E-1	4.786675E-1	5.096646E-1	5.312285E-1	5.514069E-1	5.163430E-1	5.507656E-1	5.613742E-1	5.116329E-1	4.998843E-1	5.091704E-1	5.199921E-1	5.357655E-1	4.883003E-1	4.755518E-1	5.549102E-1	5.469654E-1	5.364451E-1	4.688853E-1	5.339405E-1	5.515526E-1	5.240232E-1	5.619896E-1	5.260692E-1	4.571395E-1	4.866315E-1	4.906457E-1	5.222562E-1	5.039132E-1	4.225473E-1	4.813090E-1	5.360226E-1	5.093201E-1	4.990393E-1	4.929831E-1	5.471385E-1	5.503193E-1	5.446374E-1	5.108700E-1	5.632303E-1	5.109702E-1	4.906381E-1	5.070162E-1	5.104864E-1	4.766497E-1	4.635308E-1	5.027240E-1	5.421237E-1	5.183864E-1	5.057525E-1	4.980070E-1	5.222249E-1	5.280783E-1	5.306349E-1	5.635694E-1	5.469650E-1	4.680482E-1	5.186672E-1	4.775064E-1	5.421388E-1	5.059067E-1	4.665304E-1	4.478473E-1	5.284417E-1	4.895982E-1	4.724250E-1	4.710683E-1	5.454074E-1	4.834465E-1	5.081119E-1	5.212473E-1	5.611785E-1	4.813326E-1	5.048278E-1	5.336367E-1	5.546743E-1	4.577162E-1	4.848488E-1	4.942509E-1	5.117674E-1	5.005718E-1	4.714578E-1	5.372130E-1	5.600467E-1	5.117671E-1	5.395638E-1	5.719266E-1	5.564022E-1	4.860473E-1	4.732996E-1	5.151485E-1	5.534900E-1	4.585305E-1	4.524891E-1	4.243480E-1	5.476276E-1	5.574566E-1	4.751017E-1	5.048946E-1
2.884130E+2	6.252970E-1	6.131355E-1	6.469530E-1	6.678477E-1	6.086818E-1	6.198785E-1	6.295004E-1	7.855868E-1	6.738121E-1	6.321141E-1	7.211286E-1	7.368228E-1	7.123955E-1	7.347820E-1	7.558647E-1	7.080985E-1	6.820830E-1	6.642858E-1	6.530185E-1	7.028342E-1	6.515460E-1	6.457876E-1	6.258097E-1	7.169494E-1	6.898321E-1	7.000160E-1	6.817460E-1	7.499377E-1	7.162502E-1	7.483968E-1	7.309820E-1	7.911547E-1	6.538783E-1	6.367908E-1	6.896748E-1	7.362298E-1	6.333769E-1	6.098784E-1	6.635402E-1	7.639715E-1	6.204141E-1	7.095751E-1	7.011120E-1	7.251064E-1	6.968766E-1	7.346034E-1	7.236209E-1	7.588958E-1	6.395586E-1	6.822391E-1	6.752034E-1	7.572472E-1	6.153350E-1	6.392020E-1	6.685053E-1	7.333922E-1	7.103225E-1	6.528643E-1	6.542717E-1	7.537530E-1	6.893377E-1	7.545687E-1	6.936381E-1	7.382622E-1	6.648992E-1	6.823424E-1	7.117720E-1	7.402271E-1	5.831009E-1	6.651611E-1	6.693411E-1	7.502667E-1	6.343774E-1	6.959145E-1	7.001489E-1	7.252132E-1	6.608085E-1	7.414492E-1	7.248130E-1	7.835773E-1	6.584393E-1	6.614605E-1	7.349206E-1	7.253146E-1	6.306622E-1	6.712408E-1	7.226633E-1	7.230502E-1	6.618589E-1	6.929045E-1	7.314706E-1	7.521783E-1	7.384832E-1	7.285712E-1	7.355435E-1	7.281349E-1	6.569143E-1	6.849534E-1	7.484171E-1	7.043822E-1	6.204936E-1	6.310449E-1	7.059938E-1	7.773901E-1	6.552555E-1	7.122334E-1	6.847795E-1	7.544316E-1	7.069376E-1	7.324127E-1	7.205344E-1	7.340873E-1	7.024276E-1	6.494590E-1	6.909106E-1	7.312750E-1	6.621310E-1	6.267904E-1	7.015025E-1	7.426921E-1	7.262500E-1	6.819880E-1	7.660972E-1	7.300077E-1	6.722091E-1	7.156946E-1	7.547505E-1	6.867046E-1	6.130890E-1	6.632482E-1	7.577793E-1	6.875096E-1	6.394246E-1	6.139138E-1	7.791619E-1	7.194341E-1	7.059231E-1	6.849317E-1	7.269470E-1	6.824930E-1	7.320008E-1	7.491336E-1	7.700867E-1	6.471197E-1	6.617796E-1	6.852279E-1	7.592540E-1	6.045468E-1	6.492733E-1	7.015517E-1	7.298915E-1	6.758518E-1	6.604066E-1	7.289248E-1	7.723374E-1	7.341687E-1	6.833873E-1	7.444739E-1	7.761956E-1	6.277515E-1	6.301356E-1	6.695321E-1	7.636271E-1	6.586159E-1	6.408733E-1	6.249571E-1	7.325292E-1	6.823603E-1	6.647522E-1	6.860309E-1
2.886030E+2	7.364322E-1	8.098469E-1	8.027328E-1	8.546538E-1	7.381317E-1	7.402689E-1	7.586752E-1	8.596491E-1	7.472045E-1	8.250413E-1	8.506988E-1	8.569691E-1	8.181290E-1	8.387099E-1	8.583606E-1	8.457608E-1	7.974711E-1	8.100611E-1	7.549472E-1	8.325775E-1	6.840030E-1	7.301533E-1	7.525695E-1	8.530932E-1	7.836450E-1	7.597741E-1	7.686818E-1	8.327907E-1	8.267204E-1	8.169116E-1	8.103732E-1	8.447048E-1	7.844947E-1	7.284010E-1	8.445358E-1	8.161200E-1	7.601682E-1	7.293753E-1	7.932021E-1	8.307510E-1	7.197158E-1	7.315160E-1	8.426325E-1	9.101256E-1	8.123401E-1	8.177030E-1	8.467161E-1	8.906377E-1	7.571702E-1	7.776380E-1	8.155756E-1	8.636306E-1	7.259055E-1	7.386466E-1	7.546610E-1	8.863764E-1	8.198814E-1	7.366342E-1	8.128310E-1	8.867265E-1	8.195808E-1	8.301634E-1	8.309084E-1	8.751517E-1	7.914507E-1	7.501970E-1	7.951560E-1	8.309375E-1	6.941892E-1	7.767040E-1	8.259851E-1	8.917960E-1	7.686097E-1	8.310359E-1	7.795218E-1	8.827759E-1	8.565869E-1	8.874292E-1	8.245498E-1	8.950746E-1	7.725397E-1	7.918941E-1	8.301037E-1	8.401690E-1	7.281701E-1	7.398830E-1	8.442126E-1	8.651011E-1	8.134674E-1	7.591735E-1	8.425381E-1	8.322615E-1	8.287414E-1	8.599404E-1	8.415355E-1	8.665704E-1	7.826372E-1	7.145222E-1	8.408347E-1	9.081521E-1	7.442104E-1	7.882368E-1	7.994434E-1	8.563258E-1	7.642070E-1	8.151925E-1	8.316923E-1	8.560745E-1	7.992406E-1	8.220843E-1	8.651198E-1	8.555470E-1	7.672779E-1	7.469203E-1	8.298211E-1	8.598313E-1	7.661606E-1	7.423844E-1	7.860113E-1	8.922294E-1	8.077930E-1	7.897883E-1	8.926355E-1	8.957154E-1	8.379144E-1	8.487240E-1	8.573842E-1	8.555746E-1	7.766985E-1	7.842717E-1	8.835695E-1	8.570049E-1	7.555569E-1	7.535066E-1	8.835110E-1	8.817164E-1	7.293485E-1	7.494414E-1	8.534292E-1	8.758981E-1	8.397133E-1	7.836042E-1	8.954317E-1	8.781569E-1	8.234621E-1	8.344742E-1	8.396236E-1	8.630625E-1	7.500493E-1	7.745161E-1	8.961478E-1	9.015541E-1	7.652918E-1	7.954047E-1	9.202079E-1	7.648737E-1	8.174735E-1	8.709197E-1	8.864086E-1	7.529006E-1	8.089430E-1	7.862095E-1	8.776135E-1	8.072961E-1	7.687726E-1	7.041453E-1	7.918177E-1	8.872588E-1	8.100138E-1	8.164491E-1
2.888170E+2	7.035036E-1	6.885409E-1	7.529478E-1	8.311862E-1	7.155296E-1	7.349180E-1	7.217680E-1	8.815930E-1	7.182924E-1	7.966695E-1	8.414909E-1	8.140594E-1	7.889843E-1	8.346604E-1	8.419618E-1	8.694733E-1	7.715094E-1	7.274788E-1	7.594068E-1	8.450074E-1	7.348321E-1	6.873502E-1	7.082863E-1	7.838549E-1	7.272049E-1	7.565869E-1	7.233769E-1	7.622429E-1	7.980540E-1	8.061338E-1	7.642561E-1	8.098975E-1	7.370640E-1	7.016536E-1	7.880914E-1	7.769744E-1	7.104228E-1	6.508820E-1	7.317832E-1	8.008157E-1	6.989986E-1	7.145292E-1	7.740832E-1	8.326393E-1	8.108313E-1	7.963952E-1	8.046216E-1	8.596018E-1	7.540747E-1	7.500787E-1	7.931747E-1	8.753647E-1	7.005937E-1	7.137854E-1	7.472563E-1	8.537000E-1	7.885784E-1	7.564339E-1	7.771923E-1	8.478450E-1	7.839961E-1	8.037053E-1	8.121896E-1	8.472667E-1	7.727302E-1	7.916621E-1	7.999012E-1	8.498681E-1	7.055510E-1	7.551561E-1	7.760054E-1	7.938775E-1	7.218194E-1	7.777174E-1	7.693458E-1	8.478521E-1	7.500139E-1	8.685709E-1	8.393496E-1	8.807976E-1	7.651305E-1	7.453608E-1	8.132163E-1	8.393657E-1	7.164686E-1	7.471086E-1	7.802392E-1	8.214496E-1	8.015605E-1	7.548515E-1	8.087961E-1	8.215293E-1	7.994264E-1	8.186335E-1	8.622315E-1	8.646114E-1	7.237550E-1	7.497229E-1	7.927478E-1	8.570035E-1	6.999331E-1	7.186494E-1	8.319485E-1	8.344422E-1	7.441796E-1	8.085260E-1	8.081577E-1	8.544219E-1	8.069325E-1	7.469183E-1	8.329896E-1	8.410241E-1	7.598894E-1	7.346524E-1	8.018792E-1	7.959682E-1	7.546762E-1	7.296758E-1	8.505046E-1	8.059581E-1	8.444038E-1	7.445114E-1	8.213142E-1	8.658340E-1	7.639096E-1	8.054417E-1	8.447907E-1	7.956965E-1	7.832096E-1	7.985099E-1	8.154324E-1	8.739546E-1	7.405505E-1	7.053709E-1	8.218818E-1	8.048463E-1	7.512619E-1	7.999265E-1	8.154844E-1	8.638104E-1	7.758551E-1	7.778585E-1	8.447454E-1	8.901407E-1	7.895486E-1	7.829022E-1	8.257422E-1	7.997999E-1	7.188882E-1	7.792886E-1	8.471234E-1	8.783445E-1	7.498682E-1	7.660295E-1	8.718942E-1	8.553283E-1	8.234665E-1	7.938663E-1	8.103990E-1	8.475908E-1	7.422690E-1	7.584629E-1	8.210084E-1	8.072957E-1	7.435710E-1	7.437394E-1	8.470880E-1	8.662076E-1	8.241380E-1	8.055809E-1
2.890200E+2	6.969173E-1	7.262441E-1	7.376907E-1	8.405734E-1	6.819683E-1	7.195353E-1	7.092461E-1	8.751922E-1	7.353432E-1	7.810653E-1	8.224169E-1	8.124992E-1	8.262625E-1	7.948442E-1	8.074057E-1	8.273181E-1	7.606914E-1	7.705652E-1	7.606806E-1	7.976161E-1	7.593277E-1	7.251906E-1	6.966628E-1	8.040815E-1	7.859330E-1	7.804895E-1	7.448050E-1	8.172039E-1	7.491119E-1	7.791901E-1	8.127086E-1	8.339948E-1	7.589549E-1	6.876113E-1	7.888148E-1	8.440814E-1	6.946487E-1	6.725557E-1	7.305425E-1	8.683615E-1	6.875683E-1	7.074510E-1	7.401780E-1	8.342202E-1	7.783807E-1	8.297773E-1	8.294954E-1	8.551678E-1	7.362784E-1	7.507852E-1	7.894431E-1	8.112213E-1	6.926008E-1	7.461045E-1	7.728336E-1	8.848911E-1	7.502335E-1	7.305416E-1	7.786462E-1	8.385140E-1	7.925361E-1	7.908542E-1	7.722572E-1	8.814895E-1	7.435261E-1	7.735685E-1	7.856652E-1	8.396141E-1	7.023946E-1	7.253692E-1	7.729585E-1	8.638193E-1	7.264222E-1	7.455804E-1	8.080138E-1	8.226746E-1	7.736965E-1	8.497121E-1	8.322710E-1	8.964343E-1	7.191946E-1	7.636924E-1	7.886531E-1	9.148639E-1	6.631644E-1	7.326577E-1	8.278642E-1	8.332876E-1	7.698101E-1	7.613349E-1	7.933305E-1	8.380419E-1	8.163982E-1	8.091536E-1	8.659949E-1	8.162893E-1	7.452390E-1	8.116763E-1	7.987594E-1	8.330800E-1	7.116530E-1	7.236199E-1	7.710027E-1	8.938403E-1	7.658094E-1	7.833419E-1	7.553837E-1	8.469849E-1	7.892411E-1	8.220845E-1	8.403531E-1	8.179203E-1	7.779487E-1	7.257928E-1	8.593600E-1	8.548553E-1	7.013113E-1	7.435950E-1	7.978720E-1	8.486828E-1	7.578691E-1	7.459491E-1	8.059759E-1	8.413846E-1	7.518438E-1	8.175353E-1	8.221234E-1	8.481741E-1	7.677441E-1	7.227890E-1	8.655996E-1	8.594262E-1	7.235875E-1	7.264307E-1	8.800096E-1	8.087283E-1	7.149908E-1	7.620632E-1	8.050682E-1	8.452759E-1	8.204792E-1	8.282875E-1	8.303620E-1	8.615113E-1	7.430150E-1	7.821205E-1	7.731362E-1	8.450991E-1	7.845250E-1	7.806526E-1	8.570710E-1	8.215177E-1	7.321290E-1	7.660300E-1	8.565208E-1	8.113456E-1	7.830156E-1	8.044038E-1	8.610725E-1	8.290503E-1	7.104474E-1	7.413889E-1	8.396180E-1	8.104590E-1	7.278197E-1	7.001864E-1	8.601516E-1	8.802419E-1	7.716801E-1	7.476173E-1
2.892040E+2	6.359992E-1	6.967374E-1	6.830878E-1	7.457624E-1	6.271743E-1	6.633527E-1	6.683847E-1	7.974737E-1	6.671403E-1	7.221940E-1	7.369141E-1	7.820725E-1	7.489957E-1	6.983400E-1	7.769493E-1	7.805523E-1	7.116518E-1	6.729027E-1	7.109907E-1	7.851855E-1	6.527710E-1	6.532315E-1	6.601286E-1	7.597375E-1	7.249163E-1	6.920485E-1	7.184792E-1	7.351720E-1	7.484122E-1	7.368503E-1	7.560836E-1	7.489844E-1	7.268488E-1	6.521701E-1	6.896746E-1	7.386262E-1	6.570362E-1	6.461964E-1	6.455488E-1	8.038859E-1	6.068406E-1	7.116977E-1	7.593418E-1	7.844075E-1	7.119701E-1	7.417062E-1	7.937787E-1	7.671296E-1	6.890793E-1	6.914258E-1	7.394162E-1	7.196995E-1	6.612946E-1	6.827090E-1	6.987939E-1	8.024583E-1	7.236263E-1	6.292563E-1	7.546443E-1	7.833029E-1	7.206535E-1	7.318901E-1	7.572823E-1	7.686818E-1	6.918568E-1	7.102379E-1	7.016026E-1	7.496925E-1	6.228658E-1	6.936809E-1	7.150548E-1	8.136250E-1	6.466496E-1	7.543454E-1	7.116818E-1	7.901877E-1	7.026476E-1	7.456401E-1	7.460473E-1	7.747395E-1	7.132664E-1	7.101091E-1	7.019142E-1	7.437885E-1	6.475632E-1	6.754561E-1	7.418548E-1	7.593025E-1	7.452032E-1	6.547270E-1	7.448268E-1	7.554794E-1	7.230545E-1	7.448234E-1	7.179826E-1	7.516421E-1	6.585065E-1	6.715773E-1	7.303849E-1	7.076826E-1	6.393767E-1	6.770222E-1	7.337575E-1	8.047442E-1	6.520517E-1	7.226039E-1	7.190117E-1	7.362510E-1	7.553966E-1	7.040601E-1	7.894801E-1	7.664320E-1	6.892938E-1	6.903521E-1	7.348195E-1	6.931232E-1	6.790192E-1	6.497883E-1	7.467228E-1	8.076013E-1	7.270824E-1	7.301385E-1	7.691655E-1	7.798100E-1	7.888461E-1	7.456104E-1	7.767882E-1	7.687845E-1	6.326244E-1	6.891358E-1	7.862318E-1	7.633787E-1	6.687838E-1	6.476091E-1	8.274840E-1	7.675756E-1	6.568058E-1	7.234969E-1	7.953956E-1	7.542138E-1	7.458499E-1	7.331749E-1	7.933747E-1	7.742898E-1	6.515252E-1	7.555532E-1	7.650989E-1	7.794938E-1	6.631961E-1	6.735929E-1	7.817577E-1	7.935058E-1	7.197904E-1	6.933646E-1	7.554998E-1	7.532554E-1	7.253367E-1	7.398636E-1	7.736621E-1	7.661445E-1	6.968090E-1	7.072388E-1	7.225299E-1	8.025507E-1	6.755257E-1	6.638912E-1	8.078972E-1	7.300764E-1	6.405408E-1	7.476173E-1
2.894080E+2	4.985206E-1	5.336323E-1	5.168695E-1	6.049532E-1	4.538893E-1	5.262417E-1	5.326187E-1	5.890044E-1	5.448197E-1	5.115343E-1	5.797199E-1	5.800085E-1	5.768391E-1	5.620195E-1	5.725447E-1	5.987596E-1	5.400126E-1	5.565694E-1	5.313418E-1	5.847443E-1	5.119196E-1	5.353671E-1	5.062458E-1	5.621337E-1	5.067828E-1	5.199455E-1	5.354246E-1	6.104816E-1	5.617321E-1	5.836558E-1	5.692791E-1	6.124317E-1	5.633954E-1	4.950289E-1	5.521813E-1	6.044112E-1	5.259983E-1	5.290426E-1	5.655180E-1	5.736146E-1	5.203976E-1	4.937021E-1	5.404276E-1	6.254801E-1	5.542454E-1	5.882929E-1	5.864942E-1	5.872511E-1	5.405184E-1	5.232414E-1	5.527513E-1	6.125348E-1	5.067628E-1	5.105455E-1	5.049452E-1	5.989747E-1	5.506807E-1	5.256874E-1	5.328054E-1	6.231127E-1	5.840042E-1	5.572662E-1	5.732157E-1	6.197513E-1	5.443371E-1	5.127072E-1	5.755106E-1	6.037673E-1	5.111448E-1	5.136918E-1	5.590200E-1	6.128513E-1	5.454009E-1	5.512969E-1	5.190175E-1	6.090710E-1	6.094958E-1	6.324875E-1	5.986948E-1	6.054540E-1	5.265568E-1	5.472431E-1	5.975205E-1	6.008229E-1	4.941507E-1	5.231187E-1	5.449587E-1	5.839580E-1	5.054886E-1	5.423575E-1	5.733059E-1	5.977872E-1	5.757098E-1	6.005877E-1	6.301792E-1	5.799034E-1	5.128894E-1	5.652711E-1	6.259446E-1	6.078601E-1	5.026372E-1	5.397126E-1	5.807166E-1	5.890374E-1	5.350895E-1	5.552031E-1	6.362843E-1	6.395665E-1	5.884813E-1	6.051572E-1	5.545284E-1	6.179075E-1	5.226529E-1	5.172394E-1	5.783450E-1	6.085247E-1	5.452683E-1	5.214849E-1	6.029105E-1	6.399886E-1	5.706537E-1	5.325034E-1	5.897118E-1	5.905584E-1	5.740719E-1	5.661156E-1	5.992257E-1	5.582017E-1	5.097131E-1	5.234563E-1	6.012906E-1	6.011474E-1	5.148102E-1	5.134313E-1	6.264886E-1	5.913166E-1	5.495018E-1	5.313709E-1	5.833526E-1	6.123830E-1	5.781252E-1	5.710377E-1	5.803575E-1	6.198219E-1	5.521498E-1	5.477018E-1	5.765937E-1	6.037658E-1	5.352370E-1	5.781257E-1	5.899223E-1	6.198264E-1	5.624615E-1	5.866871E-1	6.361786E-1	5.897734E-1	5.762687E-1	5.976114E-1	6.039081E-1	6.264272E-1	5.119403E-1	5.542773E-1	5.969132E-1	5.779494E-1	5.262050E-1	5.140944E-1	6.089274E-1	5.911390E-1	5.921191E-1	6.353130E-1
2.896090E+2	4.680615E-1	3.910165E-1	3.932093E-1	4.012515E-1	4.490948E-1	3.657210E-1	3.731266E-1	4.655681E-1	4.692038E-1	3.810241E-1	5.034243E-1	4.770265E-1	4.568720E-1	4.553927E-1	4.612640E-1	4.795403E-1	4.296739E-1	4.265922E-1	3.937387E-1	4.433474E-1	4.090364E-1	3.957907E-1	4.126984E-1	4.524405E-1	4.495794E-1	3.685599E-1	4.368558E-1	4.308318E-1	4.764324E-1	4.412393E-1	4.659526E-1	4.732018E-1	3.765909E-1	3.780083E-1	4.631722E-1	4.494247E-1	3.719076E-1	3.404250E-1	3.744369E-1	4.385225E-1	4.225243E-1	3.847042E-1	4.372356E-1	4.649716E-1	4.176509E-1	4.334591E-1	4.417135E-1	4.472753E-1	3.834456E-1	4.264287E-1	4.220862E-1	4.709505E-1	3.782082E-1	4.111008E-1	4.039832E-1	4.697556E-1	4.035598E-1	4.091712E-1	4.142501E-1	4.963603E-1	4.423737E-1	4.279987E-1	4.309549E-1	4.689187E-1	3.893306E-1	3.928316E-1	4.121325E-1	4.507425E-1	3.735460E-1	4.300355E-1	3.944526E-1	4.277116E-1	4.234405E-1	3.884199E-1	4.518562E-1	4.783108E-1	4.224007E-1	4.697430E-1	4.500555E-1	4.470465E-1	4.161611E-1	3.935433E-1	4.478374E-1	4.602683E-1	4.063935E-1	3.876413E-1	4.163007E-1	4.485658E-1	4.284940E-1	3.846077E-1	4.235763E-1	4.095469E-1	4.376233E-1	4.543208E-1	4.790313E-1	4.858714E-1	4.174039E-1	4.096836E-1	4.711632E-1	4.502890E-1	3.626422E-1	4.061304E-1	4.676284E-1	4.311653E-1	3.796742E-1	4.115055E-1	4.522873E-1	4.445439E-1	4.484883E-1	4.159230E-1	4.434120E-1	4.542011E-1	4.085495E-1	4.034214E-1	4.649814E-1	4.451330E-1	3.790917E-1	3.992339E-1	4.035007E-1	4.690886E-1	4.300347E-1	4.354830E-1	4.708439E-1	4.483934E-1	4.292808E-1	4.528182E-1	4.204047E-1	4.593017E-1	4.144780E-1	4.289674E-1	5.002090E-1	4.833080E-1	3.915012E-1	3.696274E-1	4.451017E-1	4.569859E-1	4.029048E-1	4.458261E-1	4.747252E-1	4.697469E-1	4.250200E-1	4.618817E-1	4.351491E-1	5.072997E-1	4.425201E-1	4.445570E-1	4.911092E-1	4.405343E-1	3.946811E-1	4.103762E-1	4.684272E-1	4.909680E-1	3.565459E-1	4.258967E-1	4.685434E-1	4.462086E-1	3.927440E-1	4.751170E-1	4.803937E-1	4.721420E-1	4.179907E-1	4.084307E-1	4.170167E-1	4.229423E-1	4.020858E-1	3.656167E-1	4.833152E-1	4.550078E-1	4.105408E-1	4.396858E-1
2.898020E+2	4.952279E-1	3.926565E-1	3.972249E-1	4.876139E-1	5.278608E-1	4.065199E-1	4.034434E-1	5.048848E-1	4.958918E-1	4.618836E-1	4.771161E-1	5.043324E-1	5.022833E-1	4.722642E-1	4.741488E-1	5.072043E-1	4.794346E-1	4.639341E-1	4.466139E-1	4.720926E-1	4.904854E-1	4.305299E-1	4.221083E-1	4.858925E-1	4.831383E-1	4.450496E-1	4.454275E-1	5.202467E-1	5.071961E-1	5.005154E-1	4.501907E-1	5.207275E-1	4.429946E-1	4.381903E-1	4.233716E-1	4.430332E-1	4.853522E-1	4.124746E-1	4.674960E-1	4.715282E-1	4.953934E-1	3.995679E-1	4.733526E-1	4.649721E-1	4.893443E-1	4.980913E-1	4.512809E-1	4.707102E-1	4.399298E-1	4.320820E-1	4.564329E-1	4.787731E-1	4.095144E-1	4.396910E-1	4.268677E-1	4.927770E-1	4.982489E-1	4.282099E-1	4.586177E-1	4.940283E-1	4.630135E-1	4.446298E-1	4.808709E-1	5.107470E-1	3.998141E-1	4.456069E-1	4.460279E-1	4.688843E-1	4.044744E-1	4.078533E-1	4.377278E-1	5.124642E-1	3.835545E-1	4.030280E-1	4.654247E-1	5.148588E-1	4.823969E-1	4.955869E-1	4.558468E-1	5.252304E-1	4.569113E-1	4.450115E-1	4.486050E-1	5.124747E-1	4.408465E-1	4.418322E-1	4.340705E-1	4.100933E-1	4.253186E-1	4.343096E-1	4.791096E-1	5.358666E-1	5.085955E-1	4.875019E-1	4.896932E-1	4.819534E-1	4.046727E-1	4.103875E-1	4.952068E-1	4.692633E-1	4.297096E-1	4.458940E-1	4.655970E-1	4.929071E-1	3.844812E-1	4.470593E-1	4.601316E-1	4.825567E-1	4.669487E-1	4.264726E-1	4.849127E-1	4.707040E-1	4.142952E-1	4.156896E-1	4.873345E-1	4.791380E-1	4.148936E-1	4.415986E-1	4.561325E-1	4.929159E-1	4.716378E-1	4.383572E-1	4.624081E-1	4.972907E-1	4.904151E-1	4.540906E-1	5.054076E-1	4.579565E-1	4.413392E-1	4.619742E-1	4.927216E-1	5.236636E-1	4.006345E-1	4.352114E-1	4.359975E-1	4.740695E-1	4.165055E-1	4.388136E-1	4.754703E-1	4.729705E-1	4.942633E-1	4.395403E-1	5.139180E-1	4.999756E-1	3.739035E-1	4.633107E-1	4.779572E-1	4.944242E-1	4.125825E-1	4.192408E-1	5.110574E-1	4.773606E-1	4.028189E-1	4.421310E-1	5.293020E-1	4.918499E-1	4.541683E-1	4.942152E-1	4.759597E-1	4.893586E-1	4.376895E-1	4.319083E-1	4.961091E-1	4.759295E-1	4.159464E-1	3.854140E-1	4.953736E-1	5.013195E-1	3.580846E-1	4.107037E-1
2.900020E+2	5.396818E-1	4.656029E-1	5.048238E-1	5.054502E-1	5.401890E-1	4.720657E-1	4.910981E-1	5.213436E-1	5.715082E-1	4.973482E-1	5.626193E-1	5.160353E-1	5.104164E-1	5.437984E-1	5.456030E-1	5.598976E-1	5.342441E-1	4.940945E-1	4.873853E-1	5.544452E-1	5.707094E-1	5.000081E-1	4.957284E-1	5.574659E-1	5.861042E-1	5.422554E-1	5.207306E-1	5.842323E-1	5.855037E-1	5.774974E-1	5.546850E-1	5.655756E-1	5.757999E-1	4.823235E-1	5.543521E-1	5.468905E-1	5.630047E-1	4.728085E-1	4.923109E-1	5.252574E-1	5.482597E-1	5.517400E-1	4.998879E-1	5.535285E-1	5.293412E-1	5.094554E-1	5.469508E-1	5.885179E-1	5.683740E-1	5.543343E-1	5.333379E-1	5.593434E-1	5.467280E-1	4.987358E-1	5.022538E-1	5.685264E-1	5.655497E-1	4.670483E-1	5.197139E-1	5.694569E-1	5.363200E-1	5.618017E-1	5.164360E-1	5.823600E-1	5.795327E-1	5.051677E-1	5.409363E-1	5.785258E-1	5.578534E-1	4.712297E-1	4.980690E-1	5.782928E-1	5.369628E-1	5.366890E-1	5.495451E-1	5.579046E-1	5.273951E-1	5.291136E-1	5.388530E-1	5.768998E-1	5.428573E-1	5.359625E-1	5.430201E-1	5.662870E-1	4.993514E-1	4.809702E-1	5.165255E-1	5.329088E-1	5.285075E-1	5.243499E-1	5.276138E-1	5.771468E-1	5.479383E-1	5.470927E-1	5.448841E-1	5.622722E-1	4.969757E-1	5.124702E-1	5.515593E-1	5.501111E-1	4.909166E-1	4.856577E-1	5.556614E-1	5.554313E-1	4.966364E-1	5.226118E-1	5.364412E-1	5.569298E-1	5.361768E-1	5.484529E-1	5.431490E-1	5.743405E-1	5.259364E-1	4.892962E-1	5.336383E-1	5.446609E-1	4.864976E-1	4.748843E-1	5.287806E-1	5.808306E-1	4.974321E-1	5.339404E-1	5.567347E-1	5.552429E-1	5.531576E-1	5.419285E-1	5.551503E-1	5.534925E-1	4.918055E-1	4.956276E-1	5.623556E-1	5.026786E-1	4.998045E-1	4.628894E-1	5.837681E-1	5.734574E-1	5.343889E-1	5.012195E-1	5.915361E-1	5.285741E-1	5.381172E-1	5.301839E-1	6.043306E-1	6.171588E-1	5.048275E-1	5.477016E-1	5.480989E-1	5.561238E-1	4.947941E-1	4.819765E-1	5.792650E-1	6.094218E-1	4.945948E-1	5.627229E-1	5.366227E-1	5.366626E-1	5.208367E-1	5.692927E-1	5.526016E-1	5.853725E-1	5.081517E-1	5.229735E-1	5.651216E-1	5.534328E-1	5.180140E-1	4.500838E-1	6.028971E-1	5.911392E-1	4.266813E-1	5.121400E-1
2.905110E+2	6.376450E-1	5.205185E-1	5.738815E-1	6.040155E-1	5.716955E-1	5.162091E-1	5.299821E-1	6.127771E-1	5.559399E-1	5.427432E-1	6.027400E-1	5.909313E-1	6.181838E-1	5.869896E-1	6.006582E-1	6.461836E-1	6.200627E-1	5.544151E-1	5.561863E-1	5.870751E-1	6.062290E-1	5.279229E-1	5.394577E-1	6.220371E-1	5.975451E-1	5.534104E-1	5.611377E-1	6.326308E-1	6.008856E-1	6.059812E-1	6.253207E-1	6.311744E-1	5.962316E-1	5.010473E-1	5.652071E-1	5.660640E-1	6.412633E-1	4.938965E-1	5.376001E-1	6.173662E-1	6.368454E-1	5.142275E-1	5.846520E-1	6.523639E-1	6.070718E-1	6.252255E-1	6.356048E-1	6.056194E-1	6.140246E-1	5.451473E-1	5.930710E-1	6.140992E-1	6.393138E-1	5.490801E-1	5.608118E-1	6.138267E-1	6.211113E-1	5.454869E-1	5.888110E-1	6.106707E-1	6.416528E-1	5.920396E-1	5.825750E-1	6.279893E-1	6.012485E-1	5.390950E-1	5.531392E-1	6.234868E-1	6.335955E-1	5.555204E-1	5.285446E-1	6.260170E-1	6.428144E-1	5.454541E-1	5.739675E-1	6.196290E-1	6.016008E-1	5.814987E-1	5.761737E-1	6.340086E-1	6.065753E-1	5.324372E-1	5.737243E-1	6.739117E-1	6.527637E-1	5.056578E-1	6.011131E-1	5.891365E-1	6.023274E-1	5.610859E-1	5.880674E-1	6.192535E-1	5.826528E-1	5.958476E-1	5.800054E-1	6.288786E-1	6.107632E-1	5.694952E-1	6.003986E-1	5.888855E-1	5.677514E-1	5.334990E-1	5.786853E-1	5.687174E-1	5.751448E-1	5.500186E-1	5.799442E-1	6.436982E-1	6.477090E-1	5.451562E-1	6.087479E-1	6.047054E-1	5.686229E-1	5.356415E-1	5.935135E-1	6.334057E-1	5.378369E-1	5.311685E-1	5.710341E-1	6.161611E-1	5.997765E-1	5.483147E-1	5.667054E-1	6.204405E-1	5.788983E-1	5.852102E-1	5.910406E-1	5.972239E-1	5.292483E-1	5.428720E-1	6.027879E-1	5.841979E-1	5.356882E-1	5.537449E-1	6.257884E-1	6.208222E-1	5.706598E-1	5.369806E-1	5.751680E-1	6.188306E-1	5.888972E-1	5.857194E-1	6.276187E-1	5.985157E-1	5.600367E-1	5.945853E-1	5.882843E-1	6.053280E-1	5.186622E-1	5.522129E-1	6.368158E-1	6.038189E-1	5.539781E-1	5.797298E-1	6.149503E-1	6.744186E-1	5.725237E-1	6.226374E-1	6.229106E-1	5.906702E-1	5.793724E-1	5.656612E-1	6.217265E-1	6.293540E-1	5.199047E-1	4.777996E-1	6.039028E-1	5.911383E-1	5.658912E-1	5.266313E-1
2.910070E+2	6.639883E-1	5.885473E-1	5.345348E-1	6.162188E-1	6.086814E-1	5.610208E-1	5.523908E-1	6.914104E-1	5.870758E-1	6.250210E-1	6.487802E-1	6.673874E-1	6.256392E-1	5.451483E-1	6.381420E-1	6.152263E-1	6.741508E-1	5.773951E-1	5.714764E-1	6.266969E-1	6.497086E-1	5.614211E-1	5.743307E-1	6.912763E-1	7.027982E-1	6.426489E-1	6.033813E-1	6.260687E-1	6.211616E-1	6.544790E-1	6.492547E-1	6.740143E-1	6.538785E-1	6.026873E-1	6.346779E-1	6.052100E-1	6.285241E-1	5.682886E-1	5.493881E-1	6.733989E-1	6.497049E-1	5.956221E-1	6.045537E-1	7.053393E-1	5.942427E-1	6.252251E-1	6.260377E-1	6.309542E-1	6.859844E-1	6.016806E-1	6.162176E-1	6.500815E-1	6.739510E-1	5.546740E-1	5.904277E-1	6.635844E-1	6.602391E-1	5.660482E-1	5.924474E-1	7.179820E-1	6.252834E-1	6.094262E-1	6.299954E-1	7.300230E-1	6.903592E-1	6.061948E-1	6.304217E-1	6.763356E-1	6.361203E-1	5.751672E-1	5.876673E-1	6.375367E-1	6.090647E-1	6.104586E-1	5.970337E-1	6.813551E-1	6.197583E-1	6.660143E-1	7.010051E-1	7.019940E-1	6.221346E-1	5.726246E-1	6.067309E-1	6.313442E-1	6.358623E-1	5.652679E-1	6.188830E-1	6.490650E-1	6.213766E-1	5.510021E-1	6.091563E-1	6.844771E-1	6.543966E-1	6.046509E-1	6.515030E-1	6.419390E-1	6.226984E-1	5.849835E-1	6.635128E-1	6.491093E-1	6.602132E-1	5.397120E-1	6.328584E-1	6.351488E-1	6.224108E-1	5.796465E-1	6.291524E-1	6.346081E-1	6.700158E-1	5.866949E-1	6.696613E-1	6.700561E-1	6.901147E-1	5.676738E-1	6.589771E-1	6.698995E-1	6.628068E-1	5.862423E-1	6.725921E-1	6.128741E-1	6.347229E-1	5.943094E-1	6.525973E-1	6.648102E-1	6.416417E-1	6.533171E-1	6.395238E-1	6.369182E-1	6.920450E-1	5.972351E-1	6.626884E-1	6.431180E-1	7.229354E-1	5.555500E-1	6.355927E-1	6.775047E-1	6.454708E-1	5.748445E-1	6.183212E-1	6.381711E-1	6.627565E-1	6.297645E-1	6.392625E-1	6.970552E-1	6.302308E-1	6.180280E-1	6.737694E-1	6.693708E-1	6.041896E-1	6.142667E-1	6.559992E-1	6.558426E-1	5.902255E-1	5.781837E-1	6.559438E-1	5.997317E-1	6.122253E-1	6.483221E-1	6.260776E-1	6.688054E-1	5.346702E-1	6.033673E-1	6.263788E-1	6.973681E-1	5.532969E-1	5.675465E-1	6.229960E-1	5.995596E-1	5.880851E-1	6.063306E-1
2.915110E+2	7.603052E-1	6.295289E-1	7.031625E-1	7.279272E-1	7.463512E-1	6.372680E-1	6.525671E-1	7.535855E-1	7.531355E-1	6.590670E-1	7.592759E-1	7.071767E-1	7.354398E-1	7.003645E-1	7.728502E-1	7.179789E-1	7.650183E-1	7.080899E-1	6.269000E-1	7.743090E-1	7.703511E-1	6.420652E-1	6.662180E-1	7.605156E-1	7.211032E-1	7.326836E-1	6.939905E-1	7.466562E-1	7.686884E-1	7.684128E-1	7.333167E-1	7.704041E-1	7.414421E-1	6.595267E-1	7.048711E-1	7.218500E-1	7.965678E-1	5.946482E-1	6.542343E-1	7.701128E-1	7.840122E-1	6.479979E-1	7.379668E-1	7.227343E-1	7.383832E-1	6.642892E-1	7.427547E-1	7.968981E-1	7.463370E-1	6.843592E-1	7.110427E-1	7.337805E-1	7.372292E-1	6.727641E-1	6.833128E-1	7.779513E-1	7.784053E-1	6.612420E-1	6.819104E-1	7.755265E-1	7.825719E-1	6.797300E-1	7.560342E-1	7.699496E-1	7.659907E-1	6.529392E-1	7.083823E-1	7.607355E-1	7.623581E-1	6.518524E-1	7.113974E-1	7.568500E-1	7.348592E-1	6.915316E-1	7.062547E-1	7.585120E-1	7.342252E-1	7.582122E-1	7.428301E-1	7.604624E-1	7.525355E-1	6.607554E-1	7.280121E-1	7.502130E-1	7.840745E-1	6.941218E-1	6.821462E-1	7.496846E-1	7.325030E-1	6.662529E-1	7.335794E-1	7.571313E-1	7.299972E-1	7.549805E-1	7.405609E-1	7.549077E-1	7.754756E-1	7.039616E-1	7.363951E-1	7.629556E-1	7.546282E-1	6.782639E-1	7.506873E-1	7.453469E-1	7.289576E-1	7.085305E-1	6.940509E-1	7.676537E-1	7.830869E-1	7.812051E-1	7.125021E-1	7.486088E-1	7.311588E-1	6.685424E-1	7.619623E-1	7.959677E-1	8.019626E-1	6.770231E-1	7.289309E-1	7.878820E-1	7.603647E-1	6.812689E-1	7.231510E-1	7.454009E-1	7.164509E-1	8.105338E-1	7.138231E-1	7.506196E-1	8.060019E-1	6.761922E-1	7.847344E-1	7.343223E-1	7.444653E-1	6.488119E-1	7.567504E-1	7.838819E-1	7.943351E-1	6.940469E-1	7.351308E-1	7.945070E-1	8.189401E-1	7.542402E-1	7.666625E-1	8.228942E-1	7.469586E-1	6.875712E-1	7.446404E-1	7.912097E-1	7.845247E-1	6.899582E-1	7.497852E-1	7.662934E-1	7.352151E-1	7.049607E-1	7.935660E-1	7.540847E-1	7.650377E-1	7.444737E-1	7.616269E-1	7.370088E-1	7.202973E-1	6.965672E-1	7.628517E-1	7.962239E-1	7.366406E-1	6.229773E-1	7.586570E-1	7.455144E-1	7.938753E-1	7.476172E-1
2.920030E+2	6.022474E-1	5.582213E-1	6.204548E-1	6.847456E-1	6.990915E-1	5.623591E-1	5.919336E-1	6.173485E-1	6.508315E-1	5.945213E-1	6.625922E-1	6.377413E-1	6.866395E-1	6.436776E-1	6.557127E-1	6.725306E-1	6.885739E-1	6.470510E-1	6.026914E-1	6.461202E-1	7.042120E-1	6.240754E-1	6.009002E-1	6.516001E-1	7.409337E-1	6.569901E-1	5.990954E-1	7.048203E-1	6.358449E-1	6.760341E-1	6.445849E-1	7.168543E-1	6.779585E-1	6.187359E-1	6.513212E-1	6.595356E-1	6.715960E-1	5.307997E-1	6.213537E-1	6.749342E-1	6.589919E-1	6.295961E-1	6.016053E-1	6.911077E-1	7.074425E-1	6.245151E-1	6.604794E-1	6.816244E-1	7.006857E-1	6.469067E-1	6.348833E-1	7.416023E-1	6.652915E-1	6.081257E-1	6.308130E-1	6.598712E-1	7.056276E-1	5.272100E-1	6.040855E-1	6.837668E-1	6.872024E-1	6.532715E-1	6.487138E-1	6.989699E-1	6.738850E-1	6.039333E-1	6.277096E-1	6.723915E-1	6.821970E-1	6.258683E-1	6.163141E-1	7.157072E-1	7.310242E-1	6.126490E-1	6.329884E-1	7.252127E-1	7.105426E-1	7.086205E-1	6.733357E-1	7.135517E-1	6.665888E-1	6.064670E-1	6.581608E-1	7.100548E-1	6.839663E-1	5.803205E-1	6.402081E-1	6.756996E-1	6.475711E-1	6.014236E-1	6.555519E-1	6.795231E-1	6.821681E-1	6.581463E-1	6.427225E-1	6.987496E-1	6.409999E-1	5.934319E-1	6.672700E-1	6.581835E-1	7.513731E-1	5.987365E-1	6.822925E-1	6.671918E-1	6.848966E-1	6.463104E-1	6.213076E-1	6.957593E-1	7.277053E-1	6.335093E-1	6.656456E-1	6.733568E-1	6.498909E-1	5.860763E-1	7.044824E-1	6.740457E-1	6.884764E-1	5.898734E-1	6.696272E-1	6.391658E-1	6.879750E-1	6.230561E-1	6.802051E-1	7.417792E-1	6.673822E-1	6.825964E-1	6.710062E-1	6.651760E-1	6.936727E-1	6.270061E-1	7.031203E-1	7.044592E-1	7.170628E-1	5.814225E-1	7.119293E-1	7.054574E-1	6.983664E-1	5.853625E-1	6.540333E-1	6.986099E-1	6.696807E-1	6.450846E-1	7.070722E-1	7.003848E-1	6.736093E-1	6.766324E-1	7.051872E-1	6.748381E-1	7.096065E-1	5.992649E-1	7.114185E-1	6.998629E-1	6.627197E-1	6.292036E-1	6.859566E-1	6.727594E-1	6.669079E-1	6.661035E-1	6.963863E-1	7.005900E-1	6.551381E-1	6.033675E-1	7.101247E-1	6.696880E-1	7.007282E-1	5.873434E-1	7.315245E-1	6.992008E-1	6.365052E-1	6.461810E-1
2.925020E+2	7.240842E-1	6.049392E-1	6.260763E-1	6.903774E-1	6.984063E-1	6.352619E-1	6.103872E-1	7.471847E-1	7.494281E-1	6.342418E-1	7.007393E-1	6.775302E-1	7.456061E-1	6.578486E-1	7.634791E-1	7.160026E-1	6.965070E-1	6.470507E-1	6.447368E-1	6.896264E-1	6.907393E-1	5.992617E-1	6.324516E-1	7.348426E-1	6.783913E-1	6.968290E-1	6.278700E-1	6.638033E-1	6.708036E-1	7.060577E-1	6.994587E-1	7.476458E-1	7.107949E-1	6.167299E-1	6.686887E-1	6.603342E-1	7.310487E-1	5.682890E-1	6.412056E-1	7.478532E-1	6.797095E-1	6.345502E-1	6.760510E-1	7.306408E-1	7.247993E-1	6.955403E-1	7.095888E-1	7.234268E-1	6.921743E-1	6.518523E-1	6.520568E-1	7.259583E-1	6.992619E-1	6.093690E-1	6.873519E-1	7.029447E-1	7.189312E-1	6.262103E-1	6.615444E-1	7.242038E-1	6.964553E-1	7.145034E-1	7.304518E-1	7.274881E-1	7.038384E-1	5.979013E-1	6.697411E-1	6.589814E-1	6.935580E-1	6.455152E-1	6.443512E-1	7.231128E-1	7.034111E-1	6.710812E-1	6.764052E-1	7.195280E-1	7.137003E-1	7.610062E-1	6.965009E-1	7.686206E-1	7.221586E-1	6.621655E-1	6.742799E-1	7.237087E-1	7.249200E-1	6.242754E-1	7.319037E-1	6.956759E-1	7.452037E-1	6.302366E-1	6.738282E-1	7.183273E-1	7.107108E-1	7.008080E-1	6.866245E-1	7.327053E-1	7.325078E-1	6.293368E-1	6.965734E-1	7.109826E-1	7.220713E-1	6.198615E-1	6.728121E-1	7.093955E-1	6.961122E-1	6.737165E-1	7.097408E-1	7.288146E-1	7.807797E-1	6.816426E-1	6.817104E-1	7.307859E-1	6.950396E-1	5.997067E-1	7.084739E-1	7.005873E-1	7.134707E-1	6.086342E-1	7.096579E-1	7.698063E-1	7.254181E-1	6.417415E-1	6.886411E-1	7.399682E-1	7.051887E-1	6.787769E-1	6.854884E-1	7.008331E-1	6.944869E-1	6.846056E-1	7.278293E-1	6.988096E-1	6.981428E-1	6.301601E-1	7.343403E-1	7.582576E-1	7.180140E-1	6.421592E-1	7.254587E-1	7.356787E-1	7.381559E-1	6.980664E-1	6.735095E-1	7.057108E-1	6.941156E-1	6.641302E-1	7.103012E-1	6.685900E-1	6.930315E-1	6.674557E-1	7.092865E-1	7.166707E-1	7.136200E-1	7.026419E-1	7.254869E-1	7.150826E-1	7.118534E-1	7.233994E-1	7.242563E-1	7.608474E-1	7.271157E-1	6.510341E-1	7.457924E-1	7.606358E-1	7.479814E-1	5.642465E-1	7.435827E-1	7.202524E-1	6.708040E-1	5.882174E-1
2.930040E+2	6.203575E-1	5.762527E-1	5.690639E-1	6.349931E-1	6.004626E-1	6.004822E-1	5.537085E-1	6.557506E-1	6.211774E-1	5.540917E-1	6.198402E-1	6.463229E-1	5.985285E-1	6.227564E-1	6.340422E-1	6.481598E-1	6.323227E-1	6.204811E-1	5.759353E-1	6.290277E-1	6.515456E-1	5.421908E-1	5.333691E-1	6.399304E-1	6.646629E-1	5.900621E-1	5.862392E-1	6.121231E-1	6.071784E-1	6.598682E-1	6.334933E-1	6.833858E-1	6.290683E-1	5.384931E-1	5.919817E-1	6.195907E-1	6.230637E-1	5.390004E-1	5.698606E-1	6.296467E-1	6.454180E-1	5.581103E-1	6.148737E-1	6.808281E-1	6.621629E-1	5.932642E-1	6.451715E-1	6.277870E-1	6.472963E-1	5.755341E-1	6.162171E-1	6.156639E-1	6.339854E-1	5.366497E-1	5.762927E-1	6.398198E-1	6.516312E-1	5.074095E-1	5.655361E-1	6.658815E-1	6.103376E-1	5.897722E-1	5.969260E-1	6.349611E-1	6.731357E-1	5.752840E-1	6.439798E-1	6.274302E-1	6.209720E-1	5.485484E-1	5.864481E-1	6.737423E-1	6.589225E-1	5.768604E-1	5.692193E-1	6.683606E-1	6.884384E-1	6.611244E-1	5.877561E-1	7.033544E-1	6.213944E-1	5.888409E-1	5.760270E-1	6.273286E-1	6.085601E-1	5.435911E-1	5.940048E-1	6.468447E-1	6.539213E-1	5.567646E-1	6.358682E-1	6.382427E-1	6.366534E-1	6.148082E-1	6.370775E-1	6.295318E-1	6.752158E-1	5.617507E-1	6.357129E-1	6.474588E-1	6.537018E-1	5.658070E-1	6.152523E-1	6.499976E-1	6.456427E-1	5.396478E-1	6.020521E-1	6.817111E-1	6.592469E-1	5.801021E-1	6.013850E-1	6.377110E-1	6.211596E-1	5.806232E-1	6.326317E-1	6.707288E-1	6.513232E-1	5.692968E-1	5.895665E-1	6.293073E-1	6.122570E-1	6.129944E-1	6.464623E-1	7.490225E-1	6.440549E-1	6.469519E-1	6.621912E-1	6.328811E-1	6.423921E-1	6.127683E-1	6.469640E-1	6.003406E-1	6.381188E-1	5.561516E-1	6.432967E-1	6.565404E-1	6.122215E-1	5.229565E-1	6.666814E-1	6.720169E-1	6.912235E-1	5.984859E-1	6.529618E-1	6.644308E-1	5.695019E-1	6.469392E-1	6.080110E-1	5.764305E-1	6.625326E-1	5.378926E-1	6.623938E-1	6.326323E-1	6.642620E-1	5.990555E-1	6.090935E-1	6.943363E-1	6.384429E-1	6.107833E-1	6.260773E-1	6.231165E-1	6.521077E-1	5.642378E-1	6.775563E-1	6.657335E-1	6.055904E-1	5.134341E-1	6.270148E-1	6.556953E-1	6.365057E-1	6.208220E-1
2.935090E+2	7.339623E-1	7.065731E-1	6.686337E-1	6.425032E-1	6.963515E-1	7.148534E-1	5.715033E-1	7.206700E-1	7.101374E-1	6.704159E-1	6.961355E-1	6.697284E-1	6.859619E-1	6.888921E-1	7.125241E-1	7.127093E-1	7.246327E-1	6.808018E-1	6.568410E-1	7.043877E-1	6.999257E-1	7.022378E-1	5.826336E-1	7.223952E-1	7.538995E-1	6.800968E-1	6.395024E-1	6.818509E-1	6.833891E-1	6.929708E-1	7.356516E-1	7.262251E-1	6.976604E-1	6.541763E-1	6.853333E-1	7.074694E-1	7.450017E-1	6.707983E-1	6.232149E-1	7.156153E-1	7.011418E-1	6.472905E-1	6.649948E-1	7.021767E-1	6.870664E-1	6.941196E-1	6.936444E-1	7.392605E-1	7.084224E-1	6.370132E-1	6.916295E-1	7.173537E-1	7.319003E-1	6.106119E-1	6.153315E-1	7.333928E-1	6.970190E-1	6.163103E-1	6.520898E-1	7.226489E-1	7.000135E-1	6.116946E-1	7.023749E-1	7.059410E-1	7.278008E-1	6.257973E-1	6.738085E-1	7.394381E-1	7.093378E-1	6.360085E-1	6.400854E-1	6.984283E-1	7.156835E-1	6.309093E-1	6.553746E-1	7.438935E-1	7.058057E-1	6.918575E-1	7.421863E-1	7.373476E-1	7.132673E-1	6.311438E-1	6.635341E-1	7.389682E-1	7.171188E-1	5.977825E-1	6.743276E-1	7.274887E-1	6.817031E-1	6.280752E-1	6.611753E-1	6.927331E-1	6.968253E-1	7.184144E-1	7.305265E-1	6.987494E-1	7.181840E-1	6.645372E-1	6.875562E-1	7.192323E-1	7.305364E-1	6.558970E-1	6.795834E-1	6.929833E-1	7.097312E-1	6.796422E-1	6.512606E-1	7.023701E-1	7.130907E-1	6.710930E-1	6.837182E-1	7.274859E-1	6.827261E-1	6.351469E-1	6.717505E-1	7.030755E-1	6.796949E-1	6.449466E-1	6.777813E-1	7.303679E-1	7.237542E-1	6.870177E-1	7.032126E-1	7.236682E-1	6.939269E-1	6.934165E-1	6.760434E-1	6.759397E-1	7.229760E-1	6.231227E-1	7.428043E-1	6.592604E-1	7.157582E-1	6.018805E-1	7.455456E-1	7.264227E-1	7.149912E-1	6.239278E-1	6.852817E-1	6.969985E-1	6.981482E-1	6.578515E-1	7.084416E-1	7.243543E-1	7.619441E-1	6.617857E-1	7.124923E-1	6.998309E-1	6.658483E-1	6.442703E-1	6.687882E-1	6.550424E-1	6.981955E-1	6.624435E-1	6.815650E-1	6.918466E-1	7.335766E-1	7.655482E-1	7.223557E-1	6.741033E-1	7.149936E-1	6.211540E-1	6.876368E-1	7.203021E-1	6.736357E-1	5.748047E-1	6.883138E-1	7.763901E-1	7.494888E-1	6.751629E-1
2.940070E+2	8.352181E-1	7.983717E-1	7.136017E-1	7.936377E-1	8.182679E-1	7.850811E-1	6.815654E-1	8.358757E-1	7.931678E-1	8.080185E-1	7.678265E-1	7.953362E-1	8.221960E-1	7.739235E-1	8.085771E-1	7.752828E-1	8.111730E-1	7.748740E-1	7.109906E-1	7.743086E-1	8.426138E-1	7.816409E-1	6.595752E-1	7.644052E-1	8.179669E-1	7.948322E-1	7.319481E-1	7.950553E-1	7.980536E-1	7.999747E-1	7.660074E-1	7.904858E-1	7.728196E-1	8.046315E-1	7.953277E-1	7.649907E-1	8.032409E-1	7.826795E-1	6.926987E-1	7.785562E-1	8.497372E-1	8.001709E-1	7.939848E-1	8.184073E-1	8.342258E-1	7.949746E-1	7.905894E-1	8.044986E-1	8.128803E-1	8.179177E-1	7.528559E-1	8.112215E-1	8.124964E-1	8.001778E-1	7.654294E-1	7.890904E-1	8.151856E-1	7.868950E-1	7.531892E-1	7.941897E-1	7.918241E-1	7.878302E-1	7.872317E-1	8.136783E-1	8.116693E-1	7.645206E-1	7.768520E-1	8.151607E-1	7.339547E-1	7.323404E-1	7.449203E-1	8.218537E-1	8.269038E-1	7.543459E-1	7.374614E-1	8.096792E-1	7.910643E-1	8.154868E-1	7.402563E-1	7.686204E-1	8.088448E-1	7.242095E-1	7.848147E-1	8.104518E-1	7.541719E-1	7.248304E-1	7.717096E-1	7.600424E-1	8.110859E-1	7.274796E-1	7.820832E-1	8.215289E-1	7.809116E-1	7.549805E-1	7.537316E-1	8.078005E-1	7.699056E-1	6.814329E-1	7.912450E-1	8.421544E-1	8.171379E-1	6.850985E-1	7.899629E-1	7.555065E-1	7.898421E-1	7.448247E-1	7.496784E-1	7.833547E-1	8.584685E-1	7.765892E-1	8.048764E-1	8.099995E-1	8.189936E-1	7.005749E-1	8.098626E-1	8.001152E-1	8.120952E-1	7.296757E-1	7.800803E-1	8.363586E-1	7.562040E-1	7.488238E-1	8.159454E-1	8.087863E-1	8.250443E-1	8.092612E-1	8.038631E-1	8.394278E-1	8.296065E-1	7.182589E-1	7.750007E-1	7.722578E-1	7.810007E-1	7.095837E-1	7.770604E-1	8.025164E-1	7.905562E-1	7.157842E-1	8.117645E-1	7.783895E-1	8.350979E-1	7.970085E-1	7.762517E-1	8.022537E-1	7.942803E-1	7.391435E-1	7.965170E-1	8.013626E-1	8.256308E-1	7.424658E-1	8.179936E-1	7.991085E-1	8.385575E-1	7.443853E-1	8.367558E-1	7.325095E-1	7.695317E-1	7.912324E-1	7.673280E-1	7.595231E-1	8.203081E-1	7.243138E-1	7.899914E-1	8.721459E-1	7.920847E-1	6.559724E-1	8.089013E-1	8.339292E-1	7.958923E-1	7.258810E-1
2.945030E+2	8.302795E-1	8.811530E-1	7.649924E-1	8.452670E-1	8.278567E-1	8.392566E-1	7.487896E-1	8.724487E-1	8.317168E-1	8.881681E-1	8.289941E-1	8.468260E-1	8.764177E-1	8.468082E-1	8.566033E-1	8.549822E-1	8.638186E-1	8.617642E-1	7.294651E-1	8.341306E-1	8.701717E-1	8.579426E-1	7.774785E-1	8.188625E-1	8.644924E-1	8.027990E-1	7.656206E-1	8.902135E-1	8.483954E-1	8.631005E-1	8.483184E-1	8.761656E-1	8.589241E-1	8.460909E-1	7.989464E-1	7.793703E-1	8.444936E-1	8.687878E-1	7.534974E-1	8.246108E-1	8.675976E-1	8.447608E-1	8.160967E-1	8.634758E-1	8.470552E-1	8.354590E-1	8.390625E-1	9.077386E-1	8.531153E-1	8.271046E-1	8.305090E-1	8.972668E-1	8.597886E-1	8.629531E-1	7.586986E-1	8.440460E-1	9.051806E-1	8.379184E-1	7.771920E-1	8.750618E-1	8.651299E-1	8.475511E-1	8.022068E-1	8.707157E-1	8.506089E-1	8.361451E-1	8.337966E-1	8.451352E-1	8.179027E-1	8.603616E-1	7.778341E-1	8.572366E-1	8.629549E-1	8.909283E-1	7.890194E-1	8.340448E-1	8.597454E-1	8.762543E-1	8.354880E-1	8.318475E-1	8.184763E-1	8.623982E-1	7.771389E-1	8.473977E-1	8.620805E-1	8.416417E-1	7.866367E-1	8.532633E-1	8.777613E-1	8.564166E-1	8.137166E-1	8.842755E-1	8.688562E-1	8.971844E-1	8.264837E-1	8.326137E-1	8.781227E-1	8.299803E-1	8.160401E-1	8.314295E-1	8.666248E-1	7.640058E-1	7.906405E-1	8.461657E-1	8.595389E-1	7.877858E-1	8.045914E-1	8.494634E-1	8.007791E-1	7.996661E-1	8.517323E-1	8.106589E-1	9.019028E-1	7.271548E-1	7.930978E-1	8.324622E-1	8.951829E-1	7.205977E-1	8.097330E-1	8.585422E-1	8.369149E-1	7.552922E-1	8.857330E-1	8.024471E-1	8.009123E-1	8.175352E-1	8.233823E-1	8.333731E-1	8.605387E-1	7.564430E-1	8.760823E-1	8.561979E-1	9.167066E-1	6.891261E-1	8.407907E-1	8.366815E-1	8.442081E-1	7.529474E-1	8.236692E-1	8.871798E-1	9.035716E-1	8.180735E-1	8.598146E-1	8.901408E-1	8.739390E-1	8.266597E-1	8.432774E-1	8.622813E-1	8.216533E-1	7.520126E-1	8.989905E-1	8.471302E-1	8.439564E-1	7.760787E-1	8.638414E-1	8.686051E-1	8.774002E-1	7.853050E-1	8.560047E-1	8.277259E-1	8.203090E-1	7.627321E-1	8.752879E-1	9.069436E-1	8.059456E-1	7.285616E-1	8.882887E-1	9.490086E-1	8.826458E-1	7.403722E-1
2.950070E+2	8.096983E-1	8.573852E-1	7.023588E-1	7.720463E-1	7.901858E-1	8.419319E-1	7.296773E-1	8.605638E-1	7.931680E-1	7.938327E-1	7.928199E-1	7.812927E-1	8.120291E-1	7.799979E-1	7.921783E-1	8.220492E-1	8.082887E-1	8.316040E-1	7.262798E-1	8.504462E-1	8.248544E-1	8.138990E-1	6.833770E-1	8.818788E-1	8.309335E-1	8.338741E-1	7.380707E-1	8.360723E-1	8.183300E-1	8.299981E-1	8.162117E-1	8.125746E-1	7.859537E-1	7.919264E-1	7.815781E-1	8.121257E-1	8.165870E-1	7.633499E-1	7.454319E-1	8.023505E-1	8.190179E-1	8.030014E-1	7.504970E-1	8.073372E-1	8.485643E-1	8.276464E-1	8.154639E-1	8.513681E-1	8.252604E-1	8.610238E-1	7.573361E-1	7.979232E-1	7.558790E-1	8.076361E-1	7.398523E-1	8.343919E-1	7.885786E-1	7.983183E-1	7.459158E-1	8.470672E-1	8.181580E-1	7.764907E-1	7.859835E-1	8.694486E-1	8.603432E-1	8.022183E-1	7.280423E-1	8.301483E-1	8.210583E-1	7.817741E-1	7.558916E-1	8.193848E-1	8.591203E-1	7.653008E-1	7.361041E-1	8.381061E-1	8.060634E-1	7.770708E-1	7.685685E-1	8.440849E-1	7.755036E-1	8.616939E-1	7.326177E-1	8.200898E-1	8.178770E-1	8.061163E-1	7.738415E-1	8.577025E-1	8.309292E-1	8.067145E-1	7.624005E-1	8.339138E-1	7.832267E-1	8.579089E-1	7.606302E-1	8.078003E-1	7.905946E-1	8.039320E-1	8.265586E-1	7.835808E-1	8.099750E-1	8.323494E-1	7.892866E-1	8.414766E-1	8.074666E-1	8.640799E-1	7.995998E-1	8.263250E-1	8.415463E-1	8.194474E-1	8.236183E-1	8.040580E-1	9.010828E-1	8.334759E-1	8.122580E-1	8.324618E-1	8.323604E-1	8.119830E-1	8.045442E-1	8.232119E-1	8.086245E-1	8.005685E-1	8.151788E-1	8.178418E-1	7.824107E-1	8.391757E-1	7.856030E-1	7.909871E-1	8.450732E-1	7.609730E-1	8.056996E-1	8.077708E-1	8.266717E-1	7.715576E-1	8.022722E-1	7.947512E-1	8.751909E-1	7.592580E-1	8.281329E-1	7.775837E-1	7.927808E-1	7.950944E-1	8.872124E-1	7.916007E-1	7.706200E-1	7.907160E-1	8.082070E-1	7.701220E-1	7.997746E-1	7.479207E-1	8.094671E-1	8.367257E-1	7.961410E-1	7.544346E-1	8.287042E-1	7.905998E-1	8.444405E-1	7.859636E-1	7.502258E-1	7.919689E-1	8.309154E-1	7.314276E-1	8.621054E-1	8.310212E-1	8.248470E-1	6.810488E-1	8.591466E-1	8.605942E-1	8.322080E-1	7.657307E-1
2.955070E+2	7.940570E-1	8.188627E-1	7.441150E-1	8.058407E-1	8.038840E-1	8.492892E-1	6.881561E-1	8.669638E-1	8.331999E-1	7.817741E-1	8.309675E-1	8.530680E-1	8.432066E-1	8.272371E-1	8.466468E-1	8.167795E-1	8.306456E-1	8.150880E-1	7.269172E-1	8.791919E-1	8.536372E-1	8.728309E-1	6.872522E-1	8.593169E-1	8.736449E-1	7.924411E-1	7.803136E-1	8.549396E-1	8.232249E-1	8.053639E-1	8.220491E-1	8.848675E-1	8.384925E-1	8.387347E-1	8.155901E-1	7.985440E-1	8.463135E-1	8.512147E-1	7.528770E-1	8.215400E-1	8.118743E-1	8.030020E-1	7.895620E-1	8.310573E-1	7.655505E-1	8.162822E-1	8.671256E-1	8.323669E-1	8.329979E-1	8.603174E-1	8.267747E-1	8.166972E-1	8.098323E-1	8.536302E-1	7.714878E-1	8.648396E-1	8.699646E-1	8.303033E-1	7.459160E-1	8.571768E-1	8.138872E-1	8.490621E-1	7.878556E-1	8.472669E-1	8.491111E-1	8.316213E-1	7.768517E-1	8.404025E-1	8.261078E-1	8.464179E-1	7.644249E-1	8.786301E-1	8.890345E-1	8.471046E-1	7.489937E-1	8.770906E-1	8.407985E-1	8.392348E-1	8.232629E-1	8.692401E-1	8.451497E-1	8.024699E-1	8.017030E-1	8.875561E-1	8.640308E-1	8.591036E-1	7.667339E-1	8.096122E-1	7.983855E-1	8.348072E-1	7.940337E-1	8.396931E-1	8.480275E-1	8.924435E-1	8.151939E-1	8.332674E-1	8.534562E-1	8.468776E-1	8.092778E-1	8.479285E-1	9.109023E-1	8.323498E-1	8.184043E-1	8.602336E-1	7.914445E-1	8.077851E-1	8.003129E-1	8.213678E-1	8.623146E-1	8.088973E-1	8.048760E-1	8.331026E-1	8.189940E-1	8.655092E-1	7.739378E-1	8.167032E-1	8.499240E-1	8.325604E-1	7.852704E-1	8.149960E-1	8.294263E-1	8.372206E-1	8.427869E-1	8.594947E-1	8.845692E-1	8.226272E-1	7.635654E-1	8.172255E-1	8.393749E-1	8.108065E-1	8.670969E-1	8.957462E-1	8.625550E-1	8.263116E-1	8.604001E-1	8.157165E-1	8.162488E-1	8.938868E-1	8.288772E-1	8.734805E-1	8.104774E-1	7.931790E-1	8.317319E-1	8.268891E-1	8.061107E-1	8.313481E-1	7.811733E-1	8.685294E-1	8.388912E-1	7.826984E-1	8.485450E-1	8.047101E-1	8.663217E-1	8.162769E-1	7.818536E-1	7.914296E-1	8.294586E-1	8.136240E-1	8.072325E-1	8.204420E-1	8.172782E-1	8.402796E-1	8.372921E-1	7.946422E-1	8.538286E-1	7.655160E-1	8.300044E-1	8.142815E-1	9.229973E-1	7.439951E-1
2.960050E+2	9.331815E-1	9.934426E-1	8.372617E-1	9.823210E-1	1.004566E+0	1.041245E+0	8.351255E-1	1.032459E+0	1.014827E+0	9.803759E-1	9.421215E-1	1.027826E+0	9.821518E-1	9.696312E-1	9.971689E-1	1.013064E+0	9.993993E-1	1.026211E+0	9.091142E-1	9.592125E-1	9.565202E-1	9.801494E-1	8.012809E-1	9.550073E-1	9.956774E-1	9.597629E-1	8.843917E-1	1.007519E+0	9.819382E-1	1.006287E+0	9.679902E-1	9.805884E-1	9.683798E-1	9.918639E-1	9.697273E-1	9.655142E-1	1.002224E+0	9.888706E-1	8.844001E-1	9.781243E-1	9.504684E-1	1.044354E+0	9.789934E-1	1.039007E+0	9.798758E-1	9.952652E-1	9.704484E-1	1.007179E+0	9.931652E-1	9.747958E-1	9.843200E-1	1.016949E+0	1.014987E+0	9.897444E-1	9.141818E-1	1.054213E+0	1.050737E+0	9.788041E-1	9.117494E-1	1.043029E+0	9.846983E-1	9.979835E-1	9.625624E-1	9.930287E-1	9.831517E-1	1.013320E+0	9.436196E-1	1.002104E+0	9.750682E-1	1.022604E+0	9.478869E-1	1.028388E+0	1.026336E+0	9.763838E-1	9.613311E-1	9.842982E-1	9.686861E-1	9.922010E-1	1.004718E+0	1.019489E+0	1.005927E+0	1.017509E+0	9.498496E-1	1.039356E+0	9.751901E-1	9.921725E-1	9.494135E-1	9.583219E-1	1.030163E+0	9.997607E-1	9.304070E-1	1.013072E+0	9.853428E-1	1.015010E+0	9.544259E-1	9.782334E-1	9.680396E-1	9.820482E-1	9.355074E-1	1.041799E+0	1.050897E+0	1.002589E+0	9.816037E-1	9.930963E-1	9.885178E-1	9.840742E-1	9.736128E-1	1.054403E+0	1.027691E+0	9.730762E-1	1.005020E+0	1.001430E+0	1.043917E+0	1.034532E+0	9.870942E-1	9.311595E-1	9.992119E-1	1.035304E+0	1.011367E+0	9.957553E-1	9.900154E-1	1.058572E+0	9.662562E-1	1.053274E+0	9.529429E-1	1.002758E+0	9.543500E-1	9.867682E-1	1.027404E+0	9.842518E-1	1.012355E+0	9.748449E-1	1.034796E+0	1.017650E+0	1.042487E+0	1.009835E+0	9.500011E-1	1.045343E+0	9.903283E-1	9.871065E-1	1.002052E+0	1.038939E+0	9.920090E-1	1.019308E+0	9.812027E-1	1.015758E+0	9.477591E-1	9.489739E-1	1.003315E+0	9.906809E-1	9.814084E-1	1.021610E+0	9.326465E-1	9.840242E-1	1.008784E+0	1.012171E+0	9.523089E-1	1.029636E+0	9.934546E-1	1.009160E+0	9.301685E-1	9.918186E-1	1.000905E+0	1.009754E+0	9.943298E-1	1.016277E+0	9.907892E-1	9.897073E-1	1.025892E+0	9.686018E-1
2.965010E+2	9.973937E-1	9.549203E-1	8.661688E-1	9.363223E-1	9.847033E-1	9.971015E-1	7.896509E-1	1.029716E+0	1.027429E+0	9.988177E-1	9.546176E-1	9.646318E-1	9.868959E-1	9.851530E-1	9.825265E-1	9.498312E-1	9.597350E-1	9.867148E-1	8.855432E-1	1.015150E+0	1.017147E+0	9.578171E-1	8.665982E-1	9.837928E-1	1.017796E+0	9.422340E-1	8.513320E-1	9.968556E-1	9.805398E-1	9.662564E-1	9.528125E-1	1.018073E+0	9.793246E-1	1.010588E+0	9.624907E-1	9.631172E-1	9.803849E-1	9.958997E-1	8.459361E-1	9.888701E-1	9.726145E-1	9.969328E-1	9.089698E-1	1.003427E+0	9.919502E-1	9.874529E-1	9.959608E-1	1.047081E+0	9.745953E-1	1.010836E+0	9.163741E-1	9.864412E-1	9.856795E-1	1.013363E+0	8.899504E-1	9.896037E-1	1.036650E+0	9.727117E-1	9.001119E-1	9.800413E-1	9.882570E-1	9.533828E-1	9.113991E-1	1.021548E+0	1.028081E+0	1.009551E+0	9.110795E-1	1.017090E+0	9.908478E-1	1.047321E+0	9.192399E-1	1.020983E+0	9.718755E-1	9.289084E-1	9.267337E-1	1.005414E+0	9.647384E-1	9.852156E-1	9.641803E-1	1.013371E+0	9.822180E-1	1.004818E+0	9.329630E-1	9.775114E-1	9.933912E-1	1.003011E+0	9.323534E-1	9.361267E-1	9.499932E-1	9.774296E-1	9.669613E-1	1.043620E+0	9.537134E-1	1.034648E+0	9.795124E-1	9.632143E-1	9.927059E-1	9.496631E-1	9.347564E-1	9.741508E-1	9.805741E-1	9.907836E-1	9.450359E-1	9.524556E-1	9.965282E-1	9.425946E-1	9.129936E-1	1.034569E+0	1.004615E+0	9.704391E-1	9.836003E-1	9.776663E-1	9.823504E-1	1.005225E+0	9.056638E-1	9.651647E-1	9.931324E-1	9.947553E-1	9.995056E-1	1.003971E+0	1.023298E+0	1.009702E+0	9.401820E-1	9.889833E-1	1.037404E+0	9.779347E-1	9.801657E-1	9.544745E-1	9.435641E-1	9.557753E-1	9.981287E-1	1.016815E+0	9.936934E-1	9.779380E-1	9.780566E-1	9.554823E-1	9.333760E-1	9.387623E-1	1.001488E+0	9.846885E-1	1.018209E+0	9.782963E-1	1.011187E+0	9.860176E-1	9.819912E-1	9.977850E-1	9.813682E-1	9.653752E-1	9.840885E-1	9.913628E-1	9.799876E-1	1.039218E+0	9.997434E-1	9.608329E-1	9.956077E-1	1.019640E+0	9.800249E-1	9.934142E-1	9.845867E-1	9.846591E-1	9.612338E-1	9.918189E-1	1.062162E+0	9.907732E-1	9.199840E-1	9.601861E-1	1.016916E+0	1.033214E+0	9.794887E-1	9.033943E-1
2.970040E+2	8.920203E-1	8.442704E-1	7.786429E-1	9.213037E-1	8.648417E-1	8.539713E-1	7.230864E-1	8.541626E-1	8.887993E-1	8.583781E-1	8.546450E-1	8.522880E-1	9.123402E-1	8.447835E-1	8.735888E-1	8.958200E-1	8.349721E-1	8.718181E-1	8.027260E-1	8.729753E-1	9.063037E-1	8.473971E-1	7.304276E-1	8.398682E-1	8.370350E-1	8.848669E-1	7.497027E-1	9.099011E-1	9.022315E-1	8.715684E-1	8.664152E-1	9.236912E-1	8.574643E-1	8.888868E-1	8.257216E-1	8.720431E-1	8.857470E-1	8.488723E-1	7.534973E-1	8.982970E-1	8.397361E-1	8.440530E-1	8.455804E-1	8.579409E-1	8.666759E-1	8.951200E-1	8.269437E-1	8.596017E-1	8.438301E-1	9.133169E-1	8.110959E-1	8.651956E-1	8.604550E-1	8.610880E-1	7.788915E-1	8.863766E-1	9.051800E-1	8.424885E-1	7.946477E-1	8.680635E-1	9.334556E-1	8.687167E-1	8.022062E-1	9.119091E-1	8.693294E-1	9.062610E-1	8.582014E-1	8.900955E-1	8.753404E-1	8.584594E-1	8.119662E-1	8.440706E-1	8.882677E-1	8.427230E-1	8.154764E-1	9.022678E-1	8.873745E-1	9.153683E-1	8.837481E-1	8.767189E-1	8.555214E-1	8.567580E-1	8.285682E-1	9.204855E-1	8.601307E-1	8.831884E-1	8.321288E-1	8.821168E-1	9.055432E-1	8.391286E-1	7.996576E-1	8.875780E-1	8.565130E-1	9.174990E-1	8.032774E-1	8.606932E-1	9.091558E-1	8.764457E-1	8.280619E-1	8.603039E-1	9.369477E-1	8.864041E-1	8.461688E-1	8.657043E-1	8.331020E-1	8.966711E-1	8.003124E-1	9.147467E-1	8.492380E-1	8.682395E-1	8.912262E-1	8.575267E-1	8.879482E-1	8.723241E-1	8.322164E-1	8.440734E-1	8.749175E-1	9.221306E-1	8.215931E-1	8.979805E-1	8.635407E-1	9.213057E-1	8.765306E-1	8.866606E-1	8.773296E-1	8.436323E-1	8.473090E-1	8.791225E-1	8.987954E-1	8.787612E-1	8.918064E-1	8.319841E-1	8.534208E-1	9.285992E-1	9.346348E-1	9.205403E-1	8.887923E-1	8.265719E-1	8.556619E-1	8.654223E-1	8.797211E-1	8.672256E-1	8.666639E-1	9.161076E-1	9.125854E-1	9.133955E-1	8.615428E-1	8.474427E-1	8.826487E-1	8.522532E-1	8.790968E-1	8.903499E-1	8.524402E-1	9.020827E-1	9.033716E-1	8.146651E-1	8.781485E-1	8.755298E-1	8.674066E-1	8.740783E-1	8.468260E-1	9.349026E-1	9.008755E-1	8.784727E-1	8.658000E-1	8.908968E-1	8.450782E-1	8.591911E-1	9.028218E-1	8.092036E-1
2.975040E+2	7.989968E-1	7.696847E-1	7.328728E-1	8.171054E-1	8.093635E-1	7.563209E-1	6.571807E-1	7.828450E-1	7.850122E-1	8.406458E-1	7.651954E-1	7.672495E-1	8.052511E-1	7.799980E-1	7.781213E-1	7.963606E-1	7.239114E-1	7.813368E-1	6.861454E-1	7.882937E-1	7.507541E-1	8.232040E-1	6.612360E-1	8.001917E-1	7.836459E-1	8.155476E-1	7.490904E-1	8.048989E-1	8.197285E-1	7.984354E-1	7.572513E-1	7.576863E-1	7.947102E-1	7.578234E-1	7.084895E-1	8.209134E-1	7.965674E-1	7.574918E-1	6.889762E-1	7.585994E-1	8.033010E-1	7.640739E-1	7.165910E-1	8.144532E-1	8.251697E-1	7.765091E-1	7.593375E-1	8.120992E-1	8.020478E-1	8.044907E-1	7.214967E-1	7.674165E-1	8.031717E-1	7.604000E-1	7.317754E-1	7.876052E-1	7.838833E-1	7.716645E-1	7.131860E-1	7.957451E-1	8.110406E-1	7.772467E-1	7.747528E-1	8.238179E-1	7.974419E-1	7.946783E-1	7.429559E-1	7.678345E-1	8.317887E-1	8.020547E-1	7.418729E-1	8.045747E-1	8.153989E-1	7.769877E-1	7.544212E-1	7.601366E-1	8.313251E-1	7.826586E-1	7.640645E-1	8.046538E-1	7.762450E-1	8.208010E-1	7.602521E-1	8.040256E-1	7.866747E-1	7.711936E-1	7.553600E-1	7.718800E-1	8.341046E-1	8.023929E-1	8.362115E-1	7.736434E-1	7.454258E-1	7.962876E-1	7.794457E-1	7.575194E-1	7.635403E-1	8.271641E-1	7.581856E-1	7.076822E-1	7.923943E-1	8.012835E-1	7.533953E-1	8.102143E-1	7.978535E-1	8.137112E-1	7.960341E-1	7.940967E-1	7.892408E-1	8.286777E-1	7.861333E-1	8.066983E-1	7.656366E-1	8.232525E-1	7.547774E-1	7.976265E-1	7.675111E-1	8.307447E-1	7.393094E-1	8.010280E-1	7.944791E-1	7.826018E-1	7.776007E-1	7.598891E-1	8.121734E-1	7.672513E-1	7.900110E-1	8.199169E-1	8.116999E-1	8.133952E-1	7.839854E-1	7.649927E-1	7.881780E-1	8.239049E-1	7.945685E-1	7.636940E-1	8.222949E-1	7.894090E-1	8.474772E-1	8.331877E-1	7.958585E-1	7.580706E-1	7.885808E-1	8.009223E-1	8.297721E-1	7.696184E-1	7.731364E-1	7.849611E-1	8.249676E-1	7.895177E-1	8.165729E-1	7.398815E-1	7.706907E-1	8.015891E-1	7.855138E-1	8.163246E-1	7.807687E-1	7.760849E-1	8.015316E-1	8.085234E-1	8.362190E-1	7.613091E-1	8.186818E-1	7.519362E-1	8.147659E-1	7.292212E-1	8.038768E-1	8.002475E-1	7.615946E-1	7.621080E-1
2.980020E+2	9.208337E-1	9.319710E-1	9.247869E-1	9.447722E-1	9.079918E-1	9.128282E-1	9.524383E-1	9.638835E-1	9.570020E-1	9.285981E-1	9.513292E-1	9.388869E-1	9.719850E-1	8.926982E-1	9.216153E-1	9.043829E-1	9.503596E-1	9.335750E-1	8.912767E-1	9.421206E-1	9.448842E-1	9.621598E-1	9.413255E-1	9.301115E-1	9.720338E-1	9.438274E-1	9.088808E-1	8.967759E-1	9.385891E-1	9.146789E-1	9.493097E-1	9.672005E-1	9.267864E-1	9.631108E-1	8.705870E-1	9.024010E-1	9.148657E-1	9.349798E-1	8.229811E-1	9.435837E-1	9.218922E-1	9.431420E-1	8.514772E-1	9.480789E-1	9.142196E-1	9.490987E-1	9.028420E-1	9.216729E-1	9.390024E-1	9.345166E-1	8.558951E-1	9.434184E-1	9.683611E-1	9.375361E-1	8.024500E-1	9.502433E-1	9.521337E-1	9.719505E-1	8.681092E-1	9.116099E-1	9.590762E-1	9.102943E-1	8.914315E-1	9.359914E-1	9.636821E-1	9.462193E-1	8.785397E-1	9.184922E-1	9.371970E-1	9.161322E-1	8.424418E-1	8.885041E-1	9.166484E-1	9.427860E-1	8.555017E-1	9.591203E-1	8.976375E-1	9.321320E-1	8.779568E-1	9.317867E-1	9.659178E-1	8.927155E-1	9.145403E-1	9.317303E-1	9.134344E-1	9.427984E-1	8.712240E-1	9.405654E-1	8.777611E-1	8.845091E-1	9.275955E-1	9.734424E-1	9.321135E-1	9.588055E-1	9.600698E-1	9.188101E-1	9.306402E-1	9.581119E-1	8.626248E-1	8.710284E-1	9.551796E-1	9.311382E-1	8.685157E-1	9.548013E-1	9.572735E-1	9.418548E-1	8.837535E-1	9.378850E-1	9.176964E-1	9.704390E-1	9.126464E-1	9.017537E-1	9.125751E-1	9.125354E-1	9.304120E-1	9.850706E-1	9.377400E-1	9.354450E-1	9.409428E-1	9.505654E-1	9.317710E-1	9.169929E-1	9.363478E-1	9.292192E-1	9.416815E-1	9.461093E-1	8.882364E-1	8.750853E-1	9.614720E-1	9.169448E-1	8.850668E-1	9.772658E-1	9.375841E-1	8.955064E-1	9.409387E-1	9.616941E-1	9.129730E-1	9.247392E-1	8.980703E-1	9.000740E-1	9.689685E-1	9.451035E-1	9.378984E-1	9.267609E-1	9.591189E-1	9.634042E-1	9.185334E-1	9.458502E-1	9.244181E-1	9.395372E-1	9.657780E-1	9.295680E-1	9.156803E-1	9.569682E-1	9.128878E-1	9.250365E-1	9.163526E-1	9.328250E-1	9.269463E-1	8.787130E-1	9.059236E-1	9.911065E-1	8.807157E-1	9.377865E-1	9.691278E-1	9.344498E-1	9.304949E-1	9.939195E-1	9.108925E-1	9.613571E-1
2.985020E+2	1.030322E+0	1.020491E+0	1.125533E+0	1.046154E+0	1.063470E+0	1.064654E+0	1.073704E+0	1.074519E+0	1.051894E+0	1.054852E+0	1.032886E+0	1.065274E+0	1.059419E+0	1.069510E+0	1.065695E+0	1.044680E+0	1.065747E+0	1.077197E+0	1.042258E+0	1.073418E+0	1.072263E+0	1.094291E+0	1.114582E+0	1.048364E+0	1.048305E+0	1.110353E+0	1.091935E+0	1.029669E+0	1.043465E+0	1.021683E+0	1.063728E+0	1.046856E+0	1.066889E+0	1.074113E+0	1.064525E+0	1.099730E+0	1.058037E+0	1.096652E+0	1.094093E+0	1.035692E+0	1.052627E+0	1.049309E+0	1.071129E+0	1.078541E+0	1.048550E+0	1.097540E+0	1.075685E+0	1.090150E+0	1.086016E+0	1.101995E+0	1.043306E+0	1.112380E+0	1.061613E+0	1.070544E+0	1.026587E+0	1.017081E+0	1.062475E+0	1.048866E+0	9.917567E-1	1.074911E+0	1.061563E+0	1.072823E+0	1.026830E+0	1.064642E+0	1.045304E+0	1.042724E+0	1.022258E+0	1.044698E+0	1.051442E+0	1.045420E+0	9.710479E-1	1.078582E+0	1.075426E+0	1.050153E+0	9.905023E-1	1.076075E+0	1.049997E+0	1.093479E+0	1.063273E+0	1.084076E+0	1.024450E+0	1.048531E+0	1.035821E+0	1.039355E+0	1.055796E+0	1.036729E+0	1.016941E+0	1.098893E+0	1.071438E+0	1.073233E+0	9.929703E-1	1.061784E+0	1.037801E+0	1.061057E+0	1.032822E+0	1.090549E+0	1.100923E+0	1.046113E+0	1.049715E+0	1.131722E+0	1.028759E+0	1.045459E+0	9.734771E-1	1.008728E+0	1.044596E+0	1.067034E+0	1.024961E+0	1.061840E+0	1.020768E+0	1.056155E+0	1.044514E+0	1.039056E+0	1.043097E+0	1.077469E+0	1.008648E+0	9.925356E-1	1.103241E+0	1.063749E+0	1.018779E+0	1.040123E+0	9.950079E-1	1.067915E+0	1.006902E+0	1.064140E+0	9.979895E-1	1.023763E+0	1.052576E+0	1.056065E+0	1.055893E+0	1.070974E+0	1.073752E+0	1.051522E+0	1.058284E+0	1.037505E+0	1.105517E+0	1.047883E+0	1.037657E+0	1.033423E+0	9.955358E-1	1.080585E+0	9.997435E-1	1.066387E+0	1.026941E+0	1.075902E+0	1.067959E+0	1.043107E+0	1.025938E+0	1.059877E+0	1.066963E+0	1.090240E+0	1.052459E+0	1.032014E+0	1.015167E+0	1.063647E+0	1.030745E+0	1.019640E+0	1.077405E+0	1.038856E+0	1.065030E+0	1.081336E+0	1.058214E+0	1.070789E+0	1.058285E+0	1.094375E+0	1.014491E+0	1.065770E+0	1.012896E+0	1.013565E+0	1.088437E+0	1.044680E+0
2.990040E+2	1.125816E+0	1.122124E+0	1.093414E+0	1.124067E+0	1.093606E+0	1.135551E+0	1.188381E+0	1.083662E+0	1.117873E+0	1.088188E+0	1.121020E+0	1.135489E+0	1.105508E+0	1.141044E+0	1.126606E+0	1.136894E+0	1.100363E+0	1.179168E+0	1.181135E+0	1.083517E+0	1.093697E+0	1.092430E+0	1.147241E+0	1.096598E+0	1.085678E+0	1.053782E+0	1.113975E+0	1.155998E+0	1.103595E+0	1.131768E+0	1.106926E+0	1.102415E+0	1.109942E+0	1.118915E+0	1.139785E+0	1.105322E+0	1.120523E+0	1.122426E+0	1.198319E+0	1.137779E+0	1.094778E+0	1.120794E+0	1.132307E+0	1.107006E+0	1.120998E+0	1.100382E+0	1.136914E+0	1.120552E+0	1.116192E+0	1.150754E+0	1.204585E+0	1.110034E+0	1.104908E+0	1.118402E+0	1.159857E+0	1.159667E+0	1.082038E+0	1.095319E+0	1.205594E+0	1.102906E+0	1.084339E+0	1.139347E+0	1.170963E+0	1.090626E+0	1.106708E+0	1.128671E+0	1.125979E+0	1.125154E+0	1.098150E+0	1.109430E+0	1.164873E+0	1.082696E+0	1.127585E+0	1.132688E+0	1.160780E+0	1.108561E+0	1.083942E+0	1.127005E+0	1.146280E+0	1.111950E+0	1.088168E+0	1.146532E+0	1.037357E+0	1.073892E+0	1.144203E+0	1.111995E+0	1.072385E+0	1.078917E+0	1.115095E+0	1.133019E+0	1.085760E+0	1.134438E+0	1.148116E+0	1.092884E+0	1.132542E+0	1.104916E+0	1.114450E+0	1.090466E+0	1.097803E+0	1.130896E+0	1.093873E+0	1.138035E+0	1.049321E+0	1.112673E+0	1.111087E+0	1.129995E+0	1.076309E+0	1.102332E+0	1.137685E+0	1.070001E+0	1.102749E+0	1.135432E+0	1.120260E+0	1.051571E+0	1.121215E+0	1.113628E+0	1.108645E+0	1.130925E+0	1.061775E+0	1.096815E+0	1.114825E+0	1.139782E+0	1.049848E+0	1.120282E+0	1.088886E+0	1.131968E+0	1.106097E+0	1.135455E+0	1.146244E+0	1.098804E+0	1.138893E+0	1.158062E+0	1.103954E+0	1.088649E+0	1.097813E+0	1.124753E+0	1.120024E+0	1.106347E+0	1.114578E+0	1.092673E+0	1.092838E+0	1.100219E+0	1.121463E+0	1.071908E+0	1.071114E+0	1.140782E+0	1.123843E+0	1.106739E+0	1.072930E+0	1.076601E+0	1.068800E+0	1.161674E+0	1.113112E+0	1.124715E+0	1.062223E+0	1.095156E+0	1.105121E+0	1.129739E+0	1.053629E+0	1.108485E+0	1.087004E+0	1.121302E+0	1.104810E+0	1.084885E+0	1.178933E+0	1.109984E+0	1.131475E+0	1.072510E+0	1.066242E+0	1.142493E+0
2.995060E+2	1.058312E+0	1.046718E+0	1.062098E+0	1.003911E+0	1.039497E+0	1.022517E+0	1.055250E+0	1.031545E+0	9.918456E-1	1.054852E+0	1.041436E+0	1.044989E+0	1.011974E+0	1.046565E+0	1.038753E+0	1.063781E+0	1.078727E+0	9.917413E-1	1.101504E+0	1.047779E+0	1.066139E+0	1.004342E+0	1.071406E+0	1.096598E+0	1.075762E+0	1.002788E+0	1.083365E+0	1.056740E+0	1.050457E+0	1.047087E+0	1.059641E+0	1.067607E+0	1.018729E+0	9.965449E-1	1.122418E+0	1.034219E+0	1.052577E+0	1.028117E+0	1.085407E+0	1.062557E+0	1.085490E+0	1.100976E+0	1.089556E+0	1.053239E+0	1.039494E+0	1.055636E+0	1.024024E+0	1.017945E+0	1.027210E+0	9.677293E-1	1.077652E+0	1.019295E+0	1.014987E+0	1.026415E+0	1.145723E+0	1.021536E+0	1.020998E+0	1.060288E+0	1.124860E+0	1.037585E+0	1.055869E+0	1.027466E+0	1.076123E+0	1.027885E+0	1.048299E+0	1.020105E+0	1.095474E+0	1.074672E+0	1.017357E+0	1.063165E+0	1.125864E+0	1.070352E+0	1.018665E+0	1.004869E+0	1.155353E+0	1.013536E+0	1.039735E+0	1.021536E+0	1.067778E+0	1.014731E+0	1.077055E+0	1.044300E+0	1.110279E+0	1.073892E+0	1.044095E+0	1.064427E+0	1.150575E+0	1.078917E+0	1.011907E+0	1.014886E+0	1.099820E+0	1.051050E+0	1.029314E+0	1.061735E+0	1.032195E+0	1.020026E+0	1.019760E+0	1.050337E+0	1.067748E+0	1.064899E+0	1.067176E+0	1.027441E+0	1.120424E+0	1.021232E+0	1.020562E+0	1.017406E+0	1.099843E+0	1.013084E+0	1.058460E+0	1.044946E+0	1.077983E+0	1.045657E+0	1.076753E+0	1.081558E+0	9.982700E-1	1.027370E+0	1.009344E+0	9.880975E-1	1.011367E+0	1.073810E+0	1.089863E+0	1.043479E+0	1.045246E+0	1.063235E+0	1.111409E+0	1.042221E+0	1.033687E+0	1.045974E+0	9.728674E-1	1.025024E+0	9.936359E-1	1.051521E+0	1.061545E+0	1.091056E+0	1.013773E+0	1.032353E+0	1.037657E+0	1.067782E+0	1.046129E+0	1.039487E+0	1.061294E+0	1.056173E+0	1.018037E+0	1.059923E+0	1.015906E+0	1.012633E+0	1.055894E+0	1.020827E+0	1.043758E+0	1.048643E+0	1.005565E+0	1.020809E+0	1.107714E+0	9.994842E-1	1.070275E+0	1.032918E+0	1.026467E+0	1.040173E+0	1.065664E+0	1.111134E+0	1.046849E+0	9.903956E-1	1.063713E+0	1.039015E+0	1.000630E+0	1.094805E+0	1.067161E+0	1.036020E+0	1.072294E+0	1.055549E+0
3.000060E+2	1.065720E+0	1.109011E+0	1.061295E+0	1.063990E+0	1.086072E+0	1.108129E+0	1.073046E+0	1.063546E+0	1.096374E+0	1.032864E+0	1.088134E+0	1.048111E+0	1.045863E+0	1.070185E+0	1.069209E+0	1.053901E+0	1.080892E+0	1.036983E+0	1.097681E+0	1.064871E+0	1.072263E+0	1.023573E+0	1.064210E+0	1.028137E+0	1.034575E+0	1.073702E+0	1.052753E+0	1.055919E+0	1.044165E+0	1.086348E+0	1.063144E+0	1.058235E+0	1.082943E+0	1.089493E+0	1.094195E+0	1.037415E+0	1.057430E+0	1.060334E+0	1.110223E+0	1.061789E+0	1.041912E+0	1.021705E+0	1.138940E+0	9.986818E-1	1.051569E+0	1.020835E+0	1.101197E+0	1.037580E+0	1.029531E+0	1.040515E+0	1.097065E+0	1.047456E+0	1.046959E+0	1.086704E+0	1.133607E+0	1.063867E+0	1.098472E+0	1.051911E+0	1.096494E+0	1.077244E+0	1.028113E+0	1.072823E+0	1.059900E+0	1.057037E+0	1.038564E+0	1.067603E+0	1.134793E+0	1.069150E+0	1.064066E+0	1.063799E+0	1.153901E+0	1.075291E+0	1.046278E+0	1.092516E+0	1.083442E+0	1.082571E+0	1.097363E+0	1.043189E+0	1.080647E+0	1.052803E+0	1.068164E+0	1.047121E+0	1.141751E+0	1.077105E+0	1.055796E+0	1.072857E+0	1.133515E+0	1.030827E+0	1.089694E+0	1.091960E+0	1.057642E+0	1.005642E+0	1.107230E+0	1.029231E+0	1.062926E+0	1.108180E+0	1.070686E+0	1.027808E+0	1.163923E+0	1.093773E+0	1.062618E+0	1.056643E+0	1.234867E+0	1.092352E+0	1.068628E+0	1.029999E+0	1.119099E+0	1.090763E+0	1.076150E+0	1.029781E+0	1.075974E+0	1.071402E+0	1.081679E+0	1.053615E+0	1.186678E+0	1.083769E+0	1.073518E+0	1.051039E+0	1.227827E+0	1.037658E+0	1.074054E+0	1.049229E+0	1.184055E+0	1.063235E+0	1.047861E+0	1.088686E+0	1.129394E+0	1.067503E+0	1.051823E+0	1.074858E+0	1.124667E+0	9.966371E-1	1.050455E+0	1.063378E+0	1.047390E+0	1.069623E+0	1.069395E+0	1.078299E+0	1.098210E+0	1.053993E+0	1.081298E+0	1.074047E+0	1.107079E+0	1.064584E+0	1.056129E+0	1.070456E+0	1.102655E+0	1.081746E+0	1.066963E+0	1.055462E+0	1.090826E+0	1.116054E+0	1.077636E+0	1.053597E+0	1.138355E+0	1.110925E+0	1.093885E+0	1.082322E+0	1.087199E+0	1.011808E+0	1.065790E+0	1.065098E+0	1.073793E+0	1.092002E+0	1.022052E+0	1.065770E+0	1.054097E+0	1.083738E+0	1.100540E+0	1.033813E+0
