Photon Energy (eV)	#1	#2	#3	#4	#5	#6	#7	#8	#9	#10	#11	#12	#13	#14	#15	#16	#17	#18	#19	#20	#21	#22	#23	#24	#25	#26	#27	#28	#29	#30	#31	#32	#33	#34	#35	#36	#37	#38	#39	#40	#41	#42	#43	#44	#45	#46	#47	#48	#49	#50	#51	#52	#53	#54	#55	#56	#57	#58	#59	#60	#61	#62	#63	#64	#65	#66	#67	#68	#69	#70	#71	#72	#73	#74	#75	#76	#77	#78	#79	#80	#81	#82	#83	#84	#85	#86	#87	#88	#89	#90	#91	#92	#93	#94	#95	#96	#97	#98	#99	#100	#101	#102	#103	#104	#105	#106	#107	#108	#109	#110	#111	#112	#113	#114	#115	#116	#117	#118	#119	#120	#121	#122	#123	#124	#125	#126	#127	#128	#129	#130	#131	#132	#133	#134	#135	#136	#137	#138	#139	#140	#141	#142	#143	#144	#145	#146	#147	#148	#149	#150	#151	#152	#153	#154	#155	#156	#157	#158	#159	#160	#161	#162	#163	#164	#165	#166	#167	#168	#169	#170	#171	
2.790040E+2	-7.192549E-3	-1.829761E-3	-2.378948E-3	-2.648361E-3	-4.022087E-3	-5.508204E-3	1.728274E-3	3.648825E-3	-4.647029E-3	-1.041968E-3	-5.645605E-3	-4.844142E-3	-9.268988E-3	-2.834429E-3	-9.207590E-3	-2.450207E-3	-6.204680E-3	-3.125207E-4	8.510274E-4	-1.153165E-3	-7.009865E-4	-5.593287E-3	-3.535807E-3	-7.795692E-4	1.258003E-3	-6.843129E-4	4.240038E-3	-5.410278E-3	-2.386668E-3	-5.557617E-3	-3.248735E-3	-1.786805E-3	-1.065503E-3	-3.306388E-3	-1.308943E-2	-2.435788E-3	-1.719281E-3	-6.881285E-3	-3.598065E-3	-4.070947E-3	-4.103442E-3	-1.064216E-3	-5.147864E-3	3.927558E-3	-2.697093E-3	-3.398364E-3	-4.450472E-3	-1.303516E-3	-2.694099E-3	-4.893450E-3	-1.287101E-3	-4.618982E-3	-5.197704E-3	-1.108398E-3	4.962922E-3	-5.070122E-3	-5.591868E-3	-2.214842E-3	-8.150930E-3	-5.126973E-3	-4.558960E-3	-6.178821E-3	-1.664849E-3	-7.141852E-4	7.403157E-4	-3.523462E-3	5.531486E-3	-6.877529E-3	-9.668388E-3	-4.272542E-3	-4.153013E-3	-4.227854E-3	-8.363440E-3	-7.647721E-3	3.047787E-3	-9.857729E-4	-1.214866E-3	-5.648816E-3	3.115407E-3	-5.806446E-3	-6.465811E-4	-1.583638E-3	-5.596950E-3	-9.705858E-3	-1.773730E-3	-2.408276E-3	-1.956549E-3	-7.177802E-4	-6.924796E-3	-3.509230E-3	-2.274245E-3	-7.316464E-3	-7.361109E-3	-5.224297E-3	1.539643E-3	-8.076708E-3	-1.815847E-3	-7.643641E-3	-8.961485E-5	-4.371494E-3	-4.313200E-3	4.778030E-4	2.953954E-3	-5.858498E-3	4.298037E-3	4.016639E-3	-7.301451E-3	-8.614659E-4	-8.090448E-3	-2.221581E-3	-4.832545E-3	1.568055E-3	1.305907E-3	-2.228692E-3	-4.889356E-3	-4.495172E-3	-1.494202E-3	-8.731699E-3	1.316914E-4	1.829229E-3	-3.856163E-3	1.533765E-3	-1.612370E-3	-7.361917E-3	-5.008453E-3	7.159890E-4	-2.364261E-3	-5.793226E-3	3.046484E-3	-1.140303E-3	-1.016406E-3	-6.965413E-3	-4.257664E-3	-3.153672E-3	-5.552143E-3	3.105142E-3	-9.383767E-3	-5.125298E-3	-6.634419E-3	-3.013901E-3	-4.124116E-3	-7.166338E-3	-1.290115E-3	-3.012734E-3	7.736221E-4	-1.588314E-3	-4.280734E-3	2.798101E-3	-2.378202E-3	8.540055E-4	-1.709261E-3	-2.290259E-3	-3.456379E-3	-9.420816E-4	1.794650E-3	-1.076253E-2	-5.703995E-3	1.701657E-3	-7.038045E-3	-3.656871E-3	-6.013719E-3	-2.273671E-3	-7.524993E-4	1.423538E-3	2.350859E-3	-4.187120E-4	-3.271322E-3	-8.046693E-3	8.823594E-4	1.849731E-3	-1.804329E-2
2.795010E+2	1.678000E-3	-3.041231E-3	-4.530523E-3	-2.955756E-3	-6.878477E-4	-2.378694E-3	-1.057455E-2	-5.261582E-3	-5.695549E-3	1.983726E-3	-7.013361E-4	-7.539048E-3	-9.517440E-3	-1.896125E-3	2.031784E-3	-9.068069E-3	-1.103243E-2	-2.856983E-3	-1.092610E-3	8.041315E-4	-7.375474E-3	1.541884E-3	-3.813110E-3	-2.586884E-3	-1.298746E-3	4.934844E-3	-4.308014E-3	-1.730404E-3	-5.376965E-3	-4.518105E-3	-8.746693E-3	1.755358E-3	-2.991706E-3	-5.786497E-3	4.021743E-3	-4.320864E-3	-2.069413E-3	-3.381843E-3	-8.660716E-3	3.790551E-3	-6.527114E-3	-4.958189E-3	-3.135211E-3	2.691077E-3	-1.611444E-3	-4.992379E-3	-6.735910E-3	9.672864E-3	-6.721339E-4	5.278663E-3	-8.091106E-4	2.188174E-3	5.987222E-4	-7.758186E-3	-2.581833E-3	-3.318957E-3	-3.703294E-3	-6.268136E-3	7.338886E-3	-2.304892E-3	-2.841668E-3	-8.540085E-3	3.311190E-3	-4.850064E-3	3.387555E-4	1.471598E-3	-3.201302E-3	5.852370E-3	3.756484E-3	-5.199325E-3	4.037993E-4	-8.304591E-4	4.054067E-3	5.957203E-3	-1.912304E-3	2.071276E-3	-6.714842E-3	-5.917744E-3	-2.698448E-3	-3.354607E-3	-7.718434E-3	5.813069E-3	3.515771E-3	2.858944E-3	1.265225E-3	-3.983204E-3	-1.550467E-3	-2.385848E-3	-4.210455E-3	-5.164686E-3	-4.127688E-3	-1.060156E-2	-9.027281E-3	-3.037417E-3	4.662684E-4	1.872107E-3	2.822578E-4	-1.989846E-3	-4.539423E-3	4.156508E-3	-5.258157E-4	-3.004834E-3	-7.168579E-3	-4.733365E-3	-2.576370E-3	-1.895176E-3	-1.258322E-3	-4.410549E-3	-2.074171E-3	-1.257369E-3	-1.141532E-3	-2.747848E-3	-3.329041E-3	3.603142E-3	-4.407372E-3	3.900659E-3	-4.605769E-3	-8.333607E-3	4.974996E-3	-4.402899E-3	-1.136231E-3	-2.178147E-3	-6.106370E-3	2.957431E-3	-3.958937E-3	-2.746497E-3	-2.050010E-3	-5.383396E-3	7.400134E-3	-9.055908E-3	-3.657879E-3	1.031377E-3	-2.422209E-5	-2.190965E-3	-5.827850E-3	-9.980323E-3	-1.569478E-3	2.498701E-3	8.824773E-3	-5.860797E-3	-9.773384E-4	-4.796535E-3	-2.418836E-4	4.742770E-3	-4.218464E-3	-1.145923E-3	-4.590520E-3	4.759609E-3	1.298504E-3	-1.861563E-4	8.509671E-5	-1.067284E-2	-1.553864E-3	5.238446E-3	-3.191124E-3	2.164595E-3	-4.623689E-3	3.228429E-3	-4.051810E-3	-9.531122E-3	2.183770E-3	1.009278E-3	-7.353850E-3	-1.050115E-2	-1.989819E-3	-7.257941E-3	-3.567573E-3	-9.095984E-4	-1.892617E-3	-5.487469E-3	2.499126E-2
2.800030E+2	7.081766E-5	-4.660317E-3	-9.353054E-4	-2.897741E-3	-4.996519E-3	3.184738E-3	-3.371847E-3	-3.513719E-3	-1.358725E-3	-3.400069E-3	-9.626351E-3	-4.317267E-3	1.230462E-3	-1.839590E-3	-3.648990E-3	7.043662E-3	6.352686E-3	4.440798E-3	5.249087E-4	3.167181E-3	-4.108957E-4	-4.634726E-3	-1.724806E-3	3.202856E-3	-6.313464E-3	-2.501717E-3	-1.305212E-3	3.181006E-3	-6.635791E-3	-2.410605E-3	-3.477447E-3	-3.501103E-3	-6.354179E-4	2.024340E-3	-6.265474E-4	-4.260450E-4	-4.545423E-3	-1.432861E-3	-1.077177E-3	-7.735270E-3	1.347218E-3	-4.226768E-3	-5.369859E-3	-8.125570E-3	-1.340308E-4	8.043772E-3	6.569635E-4	-3.591211E-3	-3.799748E-3	-5.832522E-3	4.029193E-3	-4.901852E-3	-2.045223E-3	-3.914018E-3	-3.653230E-4	4.740052E-3	-4.367450E-3	3.462325E-3	-5.947454E-3	-4.644291E-3	-8.046257E-4	-9.145380E-5	-5.223843E-3	-3.524482E-3	-5.118459E-3	-2.266031E-3	2.158688E-3	-6.307362E-3	-2.697755E-4	-1.998093E-3	1.175700E-3	-3.753528E-3	4.141044E-3	3.396210E-3	4.565063E-4	-1.369541E-3	-5.926712E-3	-4.073001E-3	-5.849056E-4	-1.230478E-3	-3.922218E-3	-4.727586E-3	-5.050021E-3	-7.610455E-3	-2.730189E-3	-5.761845E-3	-3.878824E-6	-1.106423E-2	1.135353E-3	1.003182E-3	5.793432E-3	-2.208254E-3	-5.392725E-4	-1.114316E-3	-1.277075E-4	-3.798868E-3	-1.015016E-2	-5.624501E-3	9.393346E-3	-6.816339E-3	-1.134293E-3	1.480819E-3	-1.083997E-2	1.690818E-3	-8.968358E-4	2.562764E-4	4.356903E-3	6.132086E-3	7.883890E-4	-7.176589E-3	1.624047E-3	3.944411E-3	2.611764E-3	-1.755828E-4	4.205898E-4	-6.330949E-3	1.046336E-3	-1.833669E-3	-3.168938E-3	-1.409121E-3	-1.833704E-3	-1.434249E-3	-3.566094E-3	-1.248553E-2	9.298547E-4	4.751076E-3	-2.627102E-3	-2.721392E-3	-7.632930E-3	-6.031417E-6	-3.591407E-3	-1.905993E-3	-5.775895E-3	6.078100E-3	3.515284E-3	-1.460678E-3	-7.525056E-4	-3.939068E-3	-5.429042E-4	-4.963046E-3	4.957662E-4	4.504414E-3	-1.587435E-4	4.840226E-3	-4.160444E-3	-2.640882E-3	3.912193E-3	9.439882E-4	-1.139021E-2	-4.828427E-3	-2.658372E-3	2.634742E-3	-5.917210E-3	-4.814760E-3	2.257933E-3	1.417928E-3	1.588104E-3	-3.678129E-3	-4.625418E-3	5.156309E-3	6.893638E-3	-3.937746E-3	-4.180933E-3	2.615023E-3	2.006378E-3	1.895244E-3	-6.315531E-4	1.026172E-3	-5.418292E-3	-5.425143E-3	-3.738181E-3
2.805030E+2	-7.105176E-4	2.107168E-3	-5.417017E-3	-1.119957E-3	-1.287378E-3	-8.746718E-4	4.776314E-3	1.712193E-3	-1.304620E-3	-6.154094E-4	6.704024E-4	-9.028594E-3	-2.479151E-3	-5.585154E-3	1.060728E-3	-1.234989E-3	-8.709492E-3	-4.900986E-3	2.867494E-3	3.237457E-3	4.060314E-3	4.325246E-4	3.775297E-3	4.007707E-4	-7.721154E-3	-1.947502E-4	9.708051E-4	1.622235E-3	-3.313247E-3	3.919064E-4	1.159631E-3	-6.108617E-3	4.090488E-3	-3.064590E-5	-5.987505E-4	-2.714246E-3	1.239211E-3	-1.048156E-4	7.912003E-3	-8.456755E-4	-1.442769E-3	-7.681542E-3	3.170259E-3	-5.757213E-3	-2.925568E-3	-2.286562E-3	3.394744E-3	-1.807162E-4	9.823688E-4	-1.583955E-3	-6.293545E-3	8.668827E-3	-6.139113E-4	-5.117786E-3	-2.966340E-4	4.810165E-3	-4.317089E-3	2.789582E-3	-3.540004E-4	1.740197E-4	5.223858E-3	1.379795E-3	-3.168049E-3	-3.458872E-3	-5.059854E-3	-1.440487E-3	-5.332190E-3	-3.194984E-3	-1.568037E-3	-7.594685E-3	-2.920473E-3	8.195162E-4	7.240576E-3	3.470367E-3	2.837588E-3	2.996625E-3	-2.170726E-3	-1.618770E-3	-1.168879E-3	5.036158E-3	-8.573090E-4	-1.461460E-2	2.897612E-3	-1.658420E-5	-5.386658E-3	1.732833E-3	1.567161E-3	-2.257770E-3	-4.082206E-3	-5.048259E-3	-9.253204E-4	9.006026E-4	3.763215E-3	-1.040448E-3	-2.062275E-3	-1.166743E-3	6.883800E-3	3.615498E-4	-1.138350E-3	1.357317E-3	-5.872682E-3	-4.140363E-3	-1.060419E-3	1.770371E-3	-4.876865E-3	-4.549818E-3	2.852265E-3	3.785566E-3	8.631600E-4	1.549113E-3	-2.998321E-3	-4.610548E-3	-8.218246E-3	-5.527081E-3	2.086980E-3	8.853182E-4	2.524534E-3	-4.986305E-3	-1.599315E-3	-2.072088E-3	-1.763920E-3	-1.440279E-5	6.425389E-4	3.937581E-3	1.011690E-3	-1.967607E-3	-2.552570E-3	-5.925802E-3	1.199809E-3	7.607764E-4	-2.759741E-3	-5.616701E-3	-1.163838E-3	7.421189E-3	-7.254878E-4	2.859512E-3	-6.582647E-3	-2.407982E-3	-4.747952E-4	-1.546039E-3	4.766717E-3	-6.980894E-4	-4.369213E-3	-7.252624E-3	-4.102784E-3	-1.796945E-3	1.442634E-4	-2.075750E-3	-1.898498E-3	2.002658E-3	-1.895400E-3	5.221935E-4	-2.903685E-3	-7.664843E-3	-5.380260E-3	-9.668920E-4	-2.445671E-3	4.661032E-3	-5.929118E-4	-5.211910E-3	7.887732E-4	1.875055E-3	8.341555E-3	-2.687671E-3	-3.791518E-3	-6.481545E-3	1.597537E-3	2.976841E-3	1.149655E-2	-1.879577E-3	-7.293521E-3
2.810080E+2	-4.010396E-3	2.170806E-3	2.806680E-3	-2.655667E-3	-2.686488E-3	-1.497366E-3	-1.386982E-3	2.697693E-3	2.197523E-4	-2.588004E-3	3.046700E-3	7.125637E-3	-3.045931E-3	-5.530183E-3	9.677477E-4	2.669422E-4	1.165802E-3	3.889895E-3	-1.039123E-3	-3.538667E-3	-9.257235E-4	5.544722E-3	-2.672794E-3	5.097985E-3	3.965992E-3	3.683863E-3	6.803559E-3	-5.466836E-3	1.689040E-5	3.922598E-3	7.644276E-3	-6.651222E-3	-2.098586E-3	3.874922E-5	-7.884893E-3	9.688258E-3	-1.239575E-3	-6.624684E-4	-8.641961E-4	-7.572195E-4	-2.096979E-3	-6.036869E-4	-1.719222E-3	5.176340E-4	-1.473497E-3	1.686320E-3	5.954994E-3	-2.790779E-3	-2.917180E-3	-5.739324E-3	5.737264E-3	3.160582E-3	8.243174E-4	2.567017E-3	-4.537633E-3	-5.175150E-3	7.648130E-4	-2.381988E-3	-5.859016E-3	1.027056E-3	1.976804E-3	-7.001930E-3	1.569643E-3	-4.026652E-3	1.350916E-3	-5.969501E-3	-7.232285E-4	-1.600621E-3	-2.185987E-3	3.822971E-3	4.110851E-3	-5.881639E-3	4.317352E-3	-9.060966E-3	-3.200155E-3	-1.263207E-3	8.620649E-4	2.646315E-3	2.674200E-4	-3.155219E-3	9.765643E-3	-1.740220E-3	-3.352334E-3	-3.736912E-3	2.186631E-3	-1.281847E-3	1.485200E-4	2.539782E-3	1.292641E-3	1.839337E-3	1.436390E-3	2.504535E-3	-3.931218E-3	1.524339E-3	2.099798E-3	-4.452509E-4	-6.018818E-3	5.638705E-3	-1.069264E-3	-6.718890E-3	3.837796E-3	2.910765E-3	2.771807E-3	-8.814487E-3	-1.569014E-3	1.803864E-3	-4.233292E-3	-1.317260E-2	4.454111E-3	-2.384979E-3	-3.598563E-3	-7.216881E-3	-4.790813E-3	-3.916627E-3	-1.826973E-3	-1.433522E-3	2.605947E-3	9.182217E-4	3.745090E-3	1.679428E-3	-1.672124E-3	3.449370E-3	3.214906E-3	-6.654559E-3	8.022986E-3	-6.408241E-4	2.796934E-3	-1.282263E-3	-2.727357E-3	6.410621E-3	-1.922895E-3	3.557462E-3	-2.389896E-3	-2.627240E-3	1.495348E-3	-2.722022E-3	-2.812354E-3	-2.325267E-3	2.794667E-3	3.600226E-3	6.642991E-4	-1.945775E-3	3.588650E-3	-5.812162E-3	-3.264853E-3	6.293090E-4	3.305851E-3	-4.339645E-3	1.565420E-3	-3.341515E-3	-1.116835E-3	8.054467E-3	3.105508E-3	2.605536E-3	1.659006E-3	6.624143E-3	-3.001798E-4	-9.639270E-4	-1.799887E-3	1.386926E-2	9.287747E-5	-1.651279E-3	-3.275771E-3	9.874165E-3	-1.126792E-3	-1.203600E-3	-6.994704E-3	-5.518519E-4	-6.502896E-3	-1.779330E-3	-3.607058E-3
2.815020E+2	3.592494E-3	-1.140116E-3	2.089749E-3	4.016197E-3	-1.166825E-3	-5.604748E-3	-1.953986E-3	-7.558569E-3	2.949548E-4	-1.837414E-3	3.120418E-3	2.353687E-3	6.531939E-3	6.016779E-3	2.840357E-3	4.563962E-3	6.584241E-3	-1.142469E-3	-2.885132E-4	-1.162802E-3	-2.212923E-4	-1.291639E-3	1.813799E-3	-5.019261E-3	1.277519E-2	2.991246E-3	-2.218724E-3	-2.955292E-3	8.023192E-3	-8.176055E-4	2.779364E-4	9.594282E-3	1.867584E-3	-2.008346E-3	1.248117E-2	-4.908946E-3	-7.570964E-3	5.750178E-3	-1.067818E-3	-5.425023E-3	3.708515E-3	7.243551E-3	5.190225E-3	3.755629E-3	7.406994E-4	-2.030333E-4	-4.486464E-3	-1.361118E-3	3.083567E-4	2.758693E-3	-3.279813E-3	-4.738983E-3	2.166697E-4	1.384000E-3	-1.214494E-3	-7.084693E-3	6.607461E-3	3.701047E-3	5.597507E-3	-4.836467E-4	4.039980E-3	5.757549E-3	-1.067328E-4	4.986829E-3	-4.147130E-3	-2.844931E-3	2.291287E-3	-6.898308E-3	-2.799257E-3	8.986844E-3	2.480303E-3	5.729868E-3	-7.674768E-3	-3.524896E-4	-7.621756E-3	2.457110E-3	5.407461E-3	1.542547E-3	-8.044166E-3	-2.735781E-4	2.298130E-3	1.919216E-3	5.409174E-4	8.742418E-4	3.638992E-3	5.026399E-3	5.141415E-3	6.694621E-3	1.277671E-2	6.020896E-3	-9.847922E-4	9.477179E-3	8.186755E-3	4.098840E-3	-4.035858E-3	4.156359E-3	7.045456E-3	5.721955E-3	-1.833638E-3	8.187801E-3	-1.603302E-3	-1.470402E-3	2.101260E-3	4.784367E-3	-6.922855E-4	-1.628495E-3	-9.816598E-4	-3.379413E-3	4.539009E-3	-3.092327E-4	4.590832E-3	-4.807787E-4	-5.568055E-3	8.147227E-4	4.640047E-3	1.063344E-2	-3.658809E-3	4.901100E-3	-4.477751E-3	3.232582E-3	6.905637E-3	-1.918271E-3	7.948198E-4	-8.369323E-4	-8.938196E-4	5.679794E-3	1.561472E-3	2.726288E-3	-4.273555E-3	9.084431E-4	4.492108E-4	3.640321E-3	8.142205E-3	1.895883E-3	2.302063E-3	5.180334E-3	7.655063E-3	4.351316E-3	-5.062553E-3	3.419310E-4	4.332569E-5	3.449911E-3	7.274758E-3	3.986233E-4	7.701560E-3	-3.238849E-3	3.045110E-4	-9.805486E-3	3.690383E-3	8.260173E-4	-4.581772E-3	-7.853304E-4	4.702335E-3	-3.879283E-3	-5.999289E-3	-1.586454E-3	2.560551E-3	1.690666E-3	4.909632E-3	-1.498115E-3	9.417342E-4	2.035980E-3	-6.321359E-3	7.675568E-3	-3.020578E-3	4.786895E-3	1.768605E-3	-5.176184E-3	-8.854099E-3	-1.049300E-2	3.715825E-3
2.820060E+2	4.517601E-3	4.854393E-3	7.683254E-3	7.422207E-3	-1.830359E-3	6.299081E-3	6.693940E-3	3.677950E-3	3.293833E-3	5.111402E-3	-1.341283E-3	8.898037E-3	1.237267E-2	7.399777E-3	5.353358E-3	4.659704E-3	5.896435E-3	-2.523678E-3	-9.370369E-4	2.795540E-3	-3.304948E-3	-1.833753E-3	5.305497E-3	-6.411053E-3	-3.190506E-3	-4.519008E-3	-6.003411E-3	9.462101E-3	4.136979E-3	3.414880E-3	2.845248E-3	2.286900E-3	2.738915E-3	1.635485E-3	2.058836E-3	8.357891E-3	4.690764E-3	5.226018E-3	-9.850857E-4	5.045942E-3	6.679974E-3	3.120340E-3	-5.716342E-4	6.983839E-4	6.517721E-3	-2.746343E-3	-1.792270E-3	-2.629893E-3	7.540899E-3	1.430826E-3	-9.926206E-4	4.104911E-3	-1.065003E-3	5.963800E-3	-1.287693E-3	4.232059E-4	2.366055E-3	-7.497055E-3	-1.304486E-3	5.232985E-3	-3.222027E-3	-5.125294E-4	-7.086980E-4	2.537755E-3	1.109880E-2	5.700205E-3	-4.004836E-4	1.102305E-2	2.843461E-3	4.036995E-3	-4.672891E-3	8.241091E-3	5.539840E-6	4.080255E-4	5.465109E-3	-6.620727E-3	2.550156E-3	1.131763E-2	5.787120E-3	3.877262E-3	2.397376E-3	9.929151E-3	4.187271E-4	7.859200E-3	-3.807195E-3	2.036157E-3	9.117362E-4	4.238893E-3	3.025205E-3	2.042008E-3	-1.925807E-3	5.899576E-3	3.338730E-3	2.978592E-3	-2.929477E-3	1.081152E-3	1.440558E-3	-1.645095E-3	-4.577947E-3	2.438255E-3	2.670172E-3	5.676743E-3	5.244739E-3	8.338677E-4	4.341192E-3	2.016790E-3	6.330645E-3	6.732609E-3	4.280418E-4	2.507158E-3	2.162445E-3	3.712587E-3	7.236053E-3	3.276402E-3	1.585597E-3	-4.454905E-3	-2.154286E-3	5.042376E-3	-4.523197E-3	-1.018428E-3	7.065102E-3	-3.189994E-3	3.038655E-4	3.462882E-3	4.786692E-3	-2.945287E-3	2.330284E-3	4.844549E-3	5.479840E-3	2.419221E-3	2.067235E-3	6.063824E-3	4.042107E-4	-7.598832E-3	-1.252419E-3	3.879922E-3	9.243645E-3	4.530221E-3	-9.664145E-4	8.118086E-3	-5.455631E-3	8.969274E-4	-3.410754E-3	3.262935E-3	1.580450E-3	6.411752E-3	4.693088E-4	3.774123E-3	4.501599E-3	6.394770E-3	2.657026E-3	-1.401390E-3	3.704536E-4	5.032871E-3	3.353324E-4	1.030584E-3	4.085592E-3	-5.302380E-3	3.033075E-3	-2.808288E-3	-3.642211E-3	2.885484E-3	1.034226E-2	-4.625235E-3	-2.568762E-4	6.935994E-3	4.785451E-3	8.150630E-3	6.925799E-3	7.165448E-3	-3.472896E-3
2.825040E+2	2.054552E-3	1.539058E-3	6.821107E-4	8.390780E-4	1.667750E-2	6.379865E-3	4.088834E-3	4.597208E-3	9.197382E-3	2.387736E-3	1.047705E-2	7.351690E-3	4.176441E-3	4.268925E-3	6.026040E-4	-3.781006E-3	5.947438E-3	3.405943E-3	-8.861480E-4	-4.149677E-3	8.879006E-3	5.834277E-3	8.519246E-4	6.095155E-3	5.246852E-4	-3.710164E-3	1.820958E-3	1.297467E-3	5.535609E-3	5.574547E-3	3.545783E-3	4.411207E-3	-1.905775E-3	7.433303E-3	3.637871E-3	-3.240260E-3	1.121468E-2	1.487077E-3	8.341055E-3	9.997643E-3	2.434596E-3	8.170511E-3	7.583305E-3	2.292501E-3	1.583212E-3	3.896589E-3	7.458414E-3	2.184368E-3	1.251536E-3	8.581068E-3	2.895732E-3	-3.862677E-3	7.282132E-3	7.983570E-3	5.320687E-3	1.067550E-2	8.241372E-3	8.409067E-3	8.679492E-3	6.125742E-3	1.866387E-4	1.518748E-2	5.991339E-3	9.049670E-3	7.966535E-4	8.872609E-3	-3.242573E-4	8.003389E-3	9.891500E-3	2.217835E-3	3.575724E-3	-9.699525E-5	-3.720371E-3	3.829371E-3	9.272252E-4	2.714237E-3	7.207465E-3	1.751837E-3	3.326452E-3	4.906910E-3	-1.316607E-3	5.004603E-3	6.626277E-3	9.477423E-3	6.606924E-3	4.639784E-3	-4.257937E-3	2.952332E-3	-3.012455E-3	2.816752E-3	3.008031E-3	1.344381E-3	5.570180E-3	1.814707E-3	5.049610E-3	6.377952E-3	2.332749E-3	5.180872E-3	3.854890E-3	1.766841E-3	6.941324E-3	-1.930532E-3	5.997208E-3	1.032693E-2	1.972141E-3	-2.008121E-5	2.349121E-4	5.173765E-3	-9.080921E-4	9.293480E-3	4.193637E-3	5.831004E-3	1.075243E-2	4.153717E-3	2.390487E-3	1.295127E-3	5.736248E-3	1.302358E-2	4.917423E-3	2.161297E-3	-3.708598E-3	3.751929E-3	6.328705E-3	1.698105E-2	-4.890014E-3	-2.846644E-3	2.905254E-3	1.353524E-2	-2.492425E-3	-2.968183E-4	1.043188E-2	1.951231E-4	5.065098E-3	1.755376E-4	6.045206E-3	-8.618866E-4	4.202043E-3	2.417376E-3	2.061645E-3	3.323539E-3	4.586978E-3	5.755485E-3	-1.392700E-3	2.832966E-3	5.690912E-3	3.369852E-3	7.351274E-4	3.945060E-3	4.611003E-3	-1.721353E-3	9.219516E-3	3.938417E-3	5.652841E-3	4.424113E-3	8.523751E-3	2.078630E-3	4.839289E-3	-1.337348E-3	1.016536E-2	3.680732E-3	-1.244863E-3	5.689773E-5	3.200595E-3	-3.774238E-3	5.828346E-3	1.743665E-3	6.313559E-3	2.530684E-3	3.363200E-3	1.604934E-2	7.447863E-3
2.830030E+2	1.310767E-2	1.688904E-2	3.905865E-3	9.252744E-3	1.899566E-2	6.457656E-3	8.141041E-3	1.332663E-2	9.992061E-3	7.954468E-3	2.714485E-3	1.393454E-2	8.097075E-3	1.336115E-2	1.037893E-2	1.335760E-2	6.803731E-4	1.275563E-3	1.138878E-2	4.498064E-3	3.862895E-3	1.478888E-3	9.463458E-3	9.110590E-3	6.459106E-3	1.464692E-2	1.900566E-3	1.293573E-2	7.612030E-3	4.271435E-3	1.421342E-2	3.820176E-3	-1.847281E-3	3.222570E-3	2.194422E-3	3.837786E-3	8.731114E-3	4.763111E-3	7.813713E-3	2.421246E-3	1.045894E-2	1.395281E-2	9.880777E-3	7.060044E-3	3.089743E-3	4.632011E-3	1.346957E-2	1.313992E-2	1.169660E-2	1.860681E-2	1.429034E-3	3.431277E-3	4.612432E-4	-4.142616E-3	1.130958E-2	5.994749E-3	-4.050662E-4	3.953129E-3	1.412658E-2	2.977530E-3	2.445273E-2	1.101796E-2	7.406373E-3	1.172559E-2	1.531165E-2	1.050748E-2	4.726398E-3	1.588078E-2	1.488004E-2	2.021265E-2	4.248271E-3	8.431101E-3	5.512707E-3	3.902185E-3	-2.315625E-3	3.608422E-3	7.292642E-3	8.516475E-3	1.505611E-2	1.461848E-2	4.090055E-3	2.210905E-3	1.362220E-2	1.723082E-2	8.086005E-3	2.847159E-3	9.636152E-3	9.222320E-3	3.964163E-3	9.811689E-3	1.769929E-2	1.227872E-2	2.078465E-3	1.513685E-2	1.174763E-2	1.235004E-2	1.389198E-2	1.655057E-2	4.699342E-3	1.086139E-2	1.681200E-2	1.230769E-2	-8.900222E-4	1.986383E-2	1.520136E-2	7.136941E-3	3.145496E-4	1.434779E-2	5.844781E-4	3.300177E-3	4.936311E-3	1.065995E-2	6.600581E-3	3.449002E-3	5.532298E-3	7.035975E-3	2.265421E-3	1.313351E-3	9.620874E-3	8.244534E-3	4.163130E-3	1.965685E-2	1.096354E-2	8.736722E-3	2.185437E-3	1.679475E-2	1.253940E-2	1.096883E-2	1.135333E-2	1.601018E-2	-1.503393E-4	6.493869E-3	8.451523E-3	1.439987E-2	6.759695E-3	2.816596E-3	1.554733E-2	5.467779E-3	4.239924E-3	1.717896E-2	3.966975E-3	1.059515E-2	-6.775659E-3	5.702881E-3	9.719842E-3	1.142313E-2	7.091937E-3	1.051712E-2	6.771503E-3	5.933745E-3	8.839379E-3	1.090153E-2	1.554847E-2	8.995065E-3	6.320736E-3	7.394377E-3	5.617478E-3	1.367789E-2	8.541702E-3	1.093518E-2	1.372266E-2	1.326852E-2	7.952917E-3	1.044412E-2	5.928806E-3	1.177131E-2	6.368847E-3	1.689622E-2	4.671799E-3	1.086769E-2	-1.135448E-2
2.835020E+2	1.827607E-2	3.371338E-3	1.743427E-2	1.268199E-2	1.391009E-2	1.565290E-2	1.818189E-2	2.038044E-2	9.289888E-3	2.462561E-2	1.197145E-2	2.060070E-2	1.138969E-2	1.732975E-2	2.141723E-2	1.990154E-2	9.159684E-3	7.959562E-3	1.794950E-2	2.180993E-2	1.036237E-2	1.046075E-2	1.126954E-2	1.068158E-2	2.126230E-2	4.796531E-3	1.042918E-2	1.726023E-2	1.302850E-2	7.130368E-3	1.368872E-2	1.555618E-2	1.558533E-2	1.480327E-2	2.044238E-2	2.351222E-2	2.176299E-2	1.831685E-2	1.286666E-2	1.367641E-2	2.504498E-2	1.477030E-2	9.230581E-3	1.817033E-2	-1.159857E-3	1.397086E-2	9.617765E-3	1.734005E-2	1.898469E-2	1.799848E-2	1.610727E-2	1.157096E-2	1.370363E-2	2.753201E-2	1.206700E-2	1.084658E-2	1.642545E-2	4.026481E-3	1.883032E-2	9.527628E-3	1.985801E-2	2.110666E-2	1.415561E-2	1.441286E-2	1.461316E-2	5.942718E-3	8.373350E-3	1.676136E-2	1.289323E-2	1.649456E-2	1.374155E-2	6.979144E-3	1.019526E-2	1.812740E-2	9.070495E-3	1.186673E-2	2.021882E-2	1.227139E-2	1.906607E-2	3.058360E-2	1.411797E-2	2.038802E-2	9.104807E-3	9.648954E-3	9.569089E-3	1.044012E-3	1.237676E-2	2.311579E-2	1.097574E-2	2.031080E-2	1.851249E-2	7.703728E-3	8.615289E-3	9.565096E-3	2.443759E-2	1.704327E-2	1.234118E-2	1.514723E-2	1.778118E-2	7.184902E-3	1.833097E-2	1.499637E-2	6.846502E-3	1.270612E-2	1.365765E-2	1.788466E-2	1.079179E-2	1.444289E-2	1.634669E-2	1.286164E-2	2.054059E-2	2.162391E-2	2.377576E-2	1.930302E-2	8.690715E-3	1.524007E-2	2.376136E-2	1.062693E-2	1.567003E-2	1.285568E-2	1.754935E-2	1.081370E-2	6.519369E-3	2.810204E-2	1.492228E-2	1.439792E-2	8.189310E-3	1.906087E-2	1.147213E-2	1.471070E-2	1.424644E-2	1.433722E-2	1.783830E-2	1.392094E-2	1.553575E-2	1.808898E-2	1.717480E-2	2.636540E-2	1.416802E-2	1.125707E-2	1.975256E-2	8.683193E-3	2.076640E-2	1.971159E-2	1.376632E-2	1.792889E-2	1.639447E-2	2.428912E-2	2.338007E-2	9.475457E-3	8.940869E-3	1.781458E-2	1.339154E-2	2.470165E-2	1.544195E-2	2.026694E-2	2.038294E-2	1.510438E-2	1.056359E-2	4.613116E-3	1.617537E-2	1.191260E-2	1.029845E-2	1.605284E-2	1.336985E-2	1.453915E-2	2.265672E-2	1.130044E-2	2.307815E-2	1.807220E-2	1.685598E-2
2.840000E+2	2.771850E-2	1.368401E-2	2.228635E-2	2.017770E-2	2.888441E-2	3.827934E-2	2.697046E-2	2.879202E-2	2.044110E-2	2.060572E-2	2.525147E-2	2.314347E-2	1.669511E-2	3.364697E-2	3.193301E-2	2.387913E-2	2.385637E-2	2.130641E-2	3.467993E-2	2.883871E-2	2.720248E-2	2.907661E-2	3.027672E-2	3.662822E-2	3.467283E-2	2.787437E-2	2.423858E-2	4.900567E-3	3.786756E-2	2.466886E-2	2.946192E-2	2.870092E-2	2.282120E-2	2.860372E-2	2.663383E-2	2.835373E-2	2.579506E-2	2.295276E-2	2.355628E-2	2.430924E-2	1.863899E-2	3.061945E-2	3.154730E-2	1.516240E-2	2.202261E-2	2.536329E-2	2.690937E-2	1.269951E-2	1.267954E-2	2.025372E-2	2.470084E-2	2.709149E-2	2.771963E-2	2.186830E-2	3.195139E-2	3.148513E-2	4.504822E-2	3.074090E-2	3.742806E-2	1.288631E-2	3.011763E-2	3.054038E-2	3.231411E-2	2.492024E-2	3.246733E-2	2.546855E-2	2.563279E-2	2.707971E-2	2.774290E-2	2.756124E-2	2.979488E-2	2.021505E-2	3.640432E-2	3.446552E-2	2.854268E-2	3.578191E-2	2.337256E-2	3.133248E-2	2.180574E-2	2.039819E-2	1.959520E-2	1.979747E-2	3.621253E-2	2.980026E-2	2.149457E-2	3.340283E-2	3.103263E-2	2.878792E-2	2.420110E-2	3.087031E-2	3.262806E-2	2.652473E-2	3.174715E-2	2.679158E-2	2.325890E-2	1.981421E-2	1.985534E-2	1.979167E-2	3.783231E-2	2.769635E-2	3.039202E-2	3.324746E-2	2.230370E-2	2.448407E-2	4.267857E-2	3.082680E-2	2.758388E-2	3.781023E-2	3.148123E-2	3.135918E-2	3.040069E-2	2.310659E-2	1.192308E-2	3.681196E-2	2.955565E-2	2.510419E-2	2.890387E-2	2.858351E-2	1.380750E-2	2.276430E-2	2.001175E-2	2.682615E-2	2.333843E-2	2.402623E-2	2.208143E-2	5.006829E-2	1.853141E-2	3.526068E-2	1.723624E-2	2.191333E-2	2.149393E-2	1.516931E-2	3.060896E-2	3.275206E-2	2.921251E-2	3.134806E-2	2.181280E-2	2.129841E-2	2.414236E-2	3.292831E-2	2.845405E-2	2.635296E-2	2.839855E-2	2.608764E-2	2.890595E-2	2.043673E-2	2.288334E-2	2.681638E-2	2.906834E-2	2.895209E-2	2.856731E-2	3.543847E-2	2.485804E-2	2.851278E-2	1.971882E-2	3.053948E-2	2.820024E-2	2.560966E-2	3.360731E-2	3.117911E-2	2.813824E-2	2.531296E-2	2.822221E-2	2.096934E-2	2.489022E-2	3.800009E-2	2.758504E-2	3.628094E-2	2.077554E-2	2.711011E-2	2.759658E-2
2.841030E+2	1.847241E-2	2.574556E-2	2.241316E-2	2.495847E-2	1.486552E-2	2.998172E-2	2.110304E-2	3.033357E-2	3.024778E-2	2.421026E-2	2.078252E-2	2.583563E-2	1.821725E-2	2.602264E-2	2.416048E-2	2.161408E-2	2.559822E-2	2.658807E-2	2.980625E-2	2.211180E-2	2.609559E-2	2.794435E-2	2.928460E-2	2.839311E-2	2.009303E-2	4.031865E-2	3.682850E-2	4.078781E-2	3.083165E-2	2.202442E-2	3.907003E-2	1.674010E-2	2.391021E-2	1.648678E-2	2.679698E-2	3.406536E-2	2.790812E-2	2.437061E-2	3.306030E-2	1.692213E-2	3.047816E-2	2.361814E-2	2.279979E-2	2.277311E-2	1.572317E-2	2.417776E-2	2.906545E-2	2.664605E-2	2.412785E-2	3.755273E-2	2.251854E-2	3.244550E-2	1.881843E-2	2.914016E-2	3.144961E-2	1.580085E-2	2.841546E-2	3.242690E-2	2.988306E-2	1.997275E-2	2.898980E-2	2.997981E-2	2.175459E-2	2.250108E-2	2.865581E-2	3.262369E-2	2.865103E-2	4.027983E-2	1.875739E-2	2.448754E-2	2.404367E-2	1.219594E-2	1.428314E-2	2.310456E-2	1.999512E-2	1.531221E-2	2.962545E-2	2.353033E-2	1.542852E-2	3.494370E-2	3.052718E-2	1.556626E-2	2.554504E-2	1.905588E-2	2.791315E-2	2.977347E-2	3.584279E-2	2.130018E-2	1.815557E-2	2.335087E-2	2.086694E-2	3.918600E-2	2.685164E-2	2.757762E-2	3.271962E-2	3.247675E-2	3.402495E-2	2.976673E-2	2.109098E-2	2.178289E-2	3.478071E-2	1.587108E-2	2.630610E-2	2.681594E-2	3.126003E-2	2.240088E-2	1.518864E-2	2.462889E-2	2.661665E-2	1.992147E-2	1.952397E-2	3.211552E-2	1.803745E-2	2.349528E-2	2.661268E-2	2.849310E-2	2.402516E-2	3.072802E-2	1.923266E-2	3.574404E-2	3.037264E-2	2.904200E-2	1.584648E-2	2.331580E-2	2.080134E-2	2.101017E-2	2.122985E-2	2.536668E-2	2.633408E-2	4.054173E-2	3.096756E-2	2.696671E-2	2.942906E-2	3.226774E-2	1.324174E-2	2.789555E-2	2.421149E-2	1.248255E-2	2.145424E-2	1.055601E-2	2.645521E-2	1.969887E-2	3.338001E-2	2.272970E-2	2.029727E-2	2.698753E-2	3.725078E-2	3.340829E-2	1.958355E-2	2.910438E-2	2.261849E-2	3.103793E-2	1.825629E-2	3.608893E-2	3.099354E-2	2.807272E-2	3.760929E-2	2.507440E-2	3.376431E-2	2.201177E-2	1.959143E-2	2.985834E-2	1.829440E-2	1.634439E-2	2.239253E-2	2.615565E-2	2.361753E-2	2.497349E-2	2.342776E-2	1.475724E-2	4.906619E-2
2.842030E+2	3.476806E-2	4.042439E-2	3.210314E-2	3.423858E-2	3.513170E-2	3.365395E-2	3.126437E-2	2.964607E-2	3.038494E-2	3.199962E-2	3.414190E-2	3.555070E-2	3.001493E-2	2.550100E-2	3.533659E-2	3.312568E-2	2.499156E-2	4.159401E-2	3.357330E-2	2.766024E-2	2.365332E-2	2.231446E-2	4.210545E-2	4.344991E-2	4.844117E-2	3.661722E-2	2.781339E-2	2.554874E-2	4.310526E-2	3.266978E-2	3.168339E-2	2.654258E-2	4.558735E-2	3.983059E-2	2.615921E-2	2.936685E-2	4.046228E-2	2.321356E-2	3.884909E-2	2.848089E-2	2.699538E-2	2.735205E-2	2.888853E-2	2.862107E-2	2.754241E-2	3.499181E-2	3.188884E-2	1.788116E-2	4.451813E-2	3.986366E-2	4.358432E-2	3.534323E-2	2.943455E-2	4.490232E-2	2.762833E-2	3.471878E-2	2.934248E-2	2.722997E-2	3.235645E-2	3.325554E-2	2.923407E-2	2.725490E-2	3.265641E-2	3.513654E-2	4.353358E-2	3.668928E-2	2.665388E-2	3.598997E-2	4.642183E-2	3.498064E-2	3.428250E-2	2.733132E-2	2.528301E-2	3.683470E-2	3.155763E-2	2.084668E-2	3.374694E-2	3.782944E-2	2.472967E-2	4.018653E-2	4.008527E-2	4.049954E-2	3.035381E-2	4.317976E-2	3.718211E-2	2.866649E-2	2.802757E-2	4.152948E-2	3.467694E-2	3.748673E-2	3.086426E-2	3.672787E-2	2.859442E-2	4.050416E-2	3.157858E-2	4.273105E-2	3.183355E-2	3.068244E-2	1.892387E-2	3.556841E-2	5.123320E-2	4.400636E-2	3.033937E-2	4.346371E-2	4.732771E-2	3.616271E-2	4.190442E-2	2.736477E-2	3.846352E-2	2.415873E-2	2.555419E-2	3.738628E-2	2.005998E-2	3.557086E-2	3.064930E-2	3.463219E-2	3.282292E-2	3.821021E-2	2.735917E-2	5.559240E-2	2.425713E-2	3.406430E-2	2.285398E-2	4.610914E-2	3.517822E-2	3.329617E-2	2.202197E-2	3.909327E-2	3.640340E-2	3.145424E-2	4.629292E-2	4.567863E-2	4.160904E-2	3.115053E-2	3.453523E-2	3.992071E-2	3.952868E-2	3.280300E-2	2.867160E-2	2.804670E-2	3.598820E-2	2.530849E-2	4.259355E-2	2.654519E-2	2.366628E-2	3.680562E-2	3.029841E-2	4.158357E-2	3.707609E-2	3.551293E-2	4.235724E-2	3.805250E-2	4.658687E-2	4.901601E-2	3.256856E-2	3.941122E-2	3.075478E-2	3.964497E-2	3.590179E-2	4.232486E-2	4.824487E-2	4.847740E-2	3.238829E-2	2.597590E-2	2.860023E-2	4.573491E-2	3.267386E-2	2.797736E-2	2.849067E-2	3.274714E-2	2.076626E-2
2.843010E+2	5.287167E-2	6.032005E-2	4.338586E-2	6.694988E-2	6.599804E-2	5.858635E-2	6.629602E-2	5.583957E-2	5.424844E-2	5.868423E-2	5.153759E-2	6.824142E-2	5.944322E-2	5.826355E-2	5.271385E-2	5.475278E-2	5.989617E-2	5.057503E-2	5.551119E-2	5.271003E-2	5.038294E-2	5.845097E-2	6.076672E-2	4.931766E-2	6.724078E-2	6.456320E-2	5.360226E-2	6.193651E-2	5.611422E-2	6.093700E-2	6.657785E-2	6.418786E-2	6.096387E-2	5.807616E-2	4.920644E-2	5.052569E-2	5.045883E-2	5.187980E-2	5.596296E-2	5.161306E-2	6.308001E-2	5.991043E-2	5.514436E-2	4.260719E-2	5.907503E-2	5.454594E-2	5.604945E-2	5.643253E-2	6.170158E-2	5.513004E-2	4.141058E-2	5.716402E-2	5.551209E-2	4.966412E-2	6.299565E-2	6.261969E-2	6.269683E-2	6.724519E-2	6.121321E-2	5.803599E-2	5.603378E-2	5.337120E-2	5.235422E-2	7.288965E-2	6.979318E-2	6.505210E-2	5.995783E-2	5.796607E-2	5.652375E-2	6.175206E-2	6.303602E-2	4.761726E-2	6.417709E-2	5.607425E-2	4.653993E-2	4.825632E-2	5.228767E-2	5.219810E-2	5.178045E-2	5.023128E-2	6.974365E-2	4.507170E-2	6.083937E-2	5.563034E-2	5.348940E-2	5.627671E-2	4.821639E-2	4.103489E-2	5.744012E-2	5.869709E-2	6.276531E-2	4.499965E-2	4.912412E-2	5.413822E-2	5.653443E-2	6.006230E-2	5.281106E-2	6.057309E-2	5.614659E-2	5.969276E-2	5.499910E-2	7.100095E-2	5.568991E-2	6.151530E-2	4.837726E-2	5.286737E-2	4.561354E-2	6.740859E-2	6.545523E-2	5.444832E-2	5.711234E-2	4.328554E-2	6.352928E-2	5.886991E-2	4.943831E-2	3.790070E-2	6.043994E-2	6.308685E-2	5.890456E-2	4.780629E-2	4.578978E-2	6.215147E-2	6.287591E-2	5.570860E-2	5.890259E-2	5.459552E-2	6.089882E-2	5.287190E-2	3.833734E-2	5.812263E-2	5.672355E-2	6.411747E-2	6.667821E-2	6.989068E-2	6.226453E-2	6.927876E-2	5.187159E-2	6.977334E-2	5.798267E-2	6.639778E-2	6.950771E-2	5.565849E-2	5.334263E-2	6.974843E-2	4.557693E-2	7.178655E-2	6.842853E-2	8.838299E-2	6.100215E-2	4.405314E-2	5.792403E-2	5.456331E-2	5.843490E-2	5.616772E-2	5.319374E-2	6.294939E-2	4.454525E-2	6.876778E-2	4.904136E-2	6.238277E-2	5.647619E-2	6.636733E-2	4.892603E-2	5.079438E-2	6.054540E-2	5.465901E-2	5.762371E-2	7.518529E-2	6.587137E-2	5.609097E-2	4.582655E-2
2.844030E+2	7.793730E-2	8.720219E-2	9.320344E-2	9.228291E-2	8.577874E-2	8.509460E-2	9.685146E-2	8.871729E-2	9.388624E-2	8.483568E-2	9.434063E-2	9.148301E-2	9.233183E-2	9.907881E-2	7.699575E-2	8.662143E-2	7.663697E-2	9.330637E-2	9.220197E-2	8.336081E-2	8.835327E-2	9.093461E-2	9.867134E-2	8.379403E-2	8.093471E-2	1.120346E-1	7.691526E-2	8.305184E-2	6.586407E-2	9.219582E-2	7.507230E-2	7.806878E-2	9.580299E-2	9.405401E-2	9.012396E-2	9.056615E-2	8.816361E-2	8.266440E-2	8.325654E-2	9.793287E-2	9.422054E-2	9.194208E-2	8.903174E-2	8.154537E-2	1.018134E-1	8.563492E-2	8.368236E-2	9.519833E-2	1.042433E-1	8.562597E-2	8.600288E-2	8.961811E-2	6.842149E-2	8.912866E-2	8.856243E-2	1.085648E-1	1.073365E-1	9.440133E-2	9.410989E-2	8.744096E-2	9.536059E-2	9.844866E-2	9.379496E-2	7.811639E-2	9.379542E-2	9.983948E-2	7.825531E-2	7.380085E-2	6.245409E-2	9.257208E-2	9.554217E-2	1.024023E-1	1.001563E-1	6.926857E-2	8.457271E-2	7.655658E-2	8.014438E-2	7.159136E-2	8.160204E-2	9.127433E-2	9.565752E-2	8.559856E-2	9.537116E-2	8.121037E-2	9.099676E-2	8.915323E-2	1.073603E-1	8.728083E-2	8.343485E-2	9.267187E-2	8.350560E-2	8.433163E-2	8.215198E-2	8.194169E-2	9.436656E-2	8.191750E-2	8.472754E-2	7.912153E-2	9.275097E-2	7.571810E-2	9.143733E-2	9.221920E-2	8.051510E-2	8.717434E-2	8.200911E-2	7.179579E-2	8.518916E-2	8.835725E-2	8.526641E-2	7.536353E-2	8.029543E-2	8.468850E-2	7.326901E-2	9.582001E-2	7.682093E-2	7.948316E-2	7.078369E-2	8.137664E-2	7.318293E-2	7.797299E-2	7.691108E-2	8.895177E-2	8.690165E-2	7.213175E-2	9.333021E-2	8.246726E-2	7.927927E-2	8.652174E-2	7.954824E-2	8.772812E-2	9.447617E-2	8.056437E-2	8.240706E-2	9.952908E-2	7.675458E-2	7.602008E-2	8.893926E-2	9.262583E-2	7.317399E-2	9.082247E-2	9.742847E-2	8.317401E-2	1.021194E-1	8.078822E-2	7.869300E-2	8.414953E-2	8.586981E-2	9.345787E-2	9.131444E-2	8.556628E-2	8.856167E-2	8.494003E-2	8.240689E-2	7.499182E-2	7.514419E-2	9.331591E-2	6.877541E-2	9.144845E-2	7.952433E-2	9.839232E-2	7.674930E-2	9.576503E-2	1.015621E-1	9.704031E-2	9.746120E-2	8.458280E-2	1.021031E-1	1.003664E-1	8.979171E-2	7.991715E-2	7.469224E-2
2.845010E+2	1.365483E-1	1.159015E-1	9.911619E-2	9.589097E-2	1.191569E-1	1.401777E-1	1.126886E-1	9.714302E-2	1.164553E-1	9.430722E-2	1.186623E-1	1.140762E-1	1.215744E-1	1.089184E-1	1.199745E-1	1.058613E-1	1.042434E-1	1.208865E-1	9.767035E-2	1.017157E-1	9.859890E-2	9.609783E-2	9.787108E-2	9.415497E-2	1.284376E-1	1.062085E-1	1.049441E-1	9.650863E-2	1.074712E-1	1.209845E-1	1.172971E-1	8.488829E-2	1.096131E-1	8.857482E-2	1.064241E-1	1.010755E-1	1.099447E-1	9.622723E-2	1.075464E-1	1.118912E-1	1.075908E-1	1.060530E-1	1.125733E-1	1.060144E-1	1.066979E-1	1.135915E-1	9.873720E-2	1.086462E-1	1.141535E-1	1.251299E-1	1.167583E-1	1.084222E-1	1.139776E-1	1.144754E-1	1.316451E-1	1.188891E-1	8.567182E-2	1.109347E-1	9.597062E-2	9.449271E-2	1.046271E-1	9.521360E-2	1.029353E-1	1.385266E-1	1.136642E-1	1.010421E-1	9.956010E-2	1.140039E-1	8.900316E-2	1.034009E-1	1.258531E-1	1.072418E-1	9.719605E-2	1.092769E-1	1.194275E-1	1.103527E-1	1.174141E-1	1.078603E-1	1.023633E-1	1.147222E-1	1.155029E-1	1.013525E-1	1.042763E-1	9.767327E-2	1.167352E-1	1.081159E-1	1.077325E-1	1.106882E-1	9.704466E-2	1.021754E-1	1.206827E-1	1.009132E-1	1.161440E-1	1.208712E-1	1.068291E-1	1.077465E-1	9.931825E-2	1.200181E-1	9.694547E-2	9.335483E-2	1.139015E-1	9.584279E-2	1.165361E-1	1.108663E-1	1.040937E-1	1.125249E-1	1.059518E-1	1.086786E-1	1.204810E-1	1.058724E-1	9.441565E-2	1.345602E-1	1.178979E-1	9.935126E-2	1.106215E-1	9.442400E-2	1.080664E-1	1.065110E-1	1.197834E-1	1.233836E-1	1.058525E-1	1.131093E-1	9.336560E-2	1.148292E-1	9.222485E-2	9.438579E-2	1.165859E-1	1.051632E-1	9.716851E-2	1.038748E-1	1.028242E-1	1.066795E-1	1.184240E-1	1.333881E-1	1.084232E-1	1.094062E-1	1.137399E-1	1.291393E-1	1.098538E-1	1.055578E-1	1.144847E-1	1.103194E-1	1.186069E-1	1.094158E-1	1.063771E-1	1.063663E-1	1.135122E-1	1.130954E-1	1.014072E-1	1.153859E-1	1.030018E-1	1.403693E-1	1.234073E-1	9.274327E-2	1.156385E-1	1.064908E-1	1.088665E-1	1.205014E-1	1.252287E-1	8.709172E-2	9.461793E-2	1.419735E-1	1.198616E-1	1.029080E-1	1.086785E-1	1.112765E-1	9.966776E-2	1.006987E-1	1.224661E-1	8.390299E-2	1.070827E-1
2.846010E+2	1.566531E-1	1.568181E-1	1.540691E-1	1.777188E-1	1.647560E-1	1.712748E-1	1.671309E-1	1.860298E-1	1.755481E-1	1.601084E-1	1.685091E-1	1.822387E-1	1.736603E-1	1.646771E-1	1.687401E-1	1.765960E-1	1.529721E-1	1.692837E-1	1.844771E-1	1.632588E-1	1.551577E-1	1.445170E-1	1.663604E-1	1.475803E-1	1.676029E-1	1.991635E-1	1.675913E-1	1.543228E-1	1.657436E-1	1.767930E-1	1.801263E-1	1.582402E-1	1.516889E-1	1.600871E-1	1.715292E-1	1.422131E-1	1.760099E-1	1.759113E-1	1.648560E-1	1.668027E-1	2.093172E-1	1.797913E-1	1.753186E-1	1.585331E-1	1.617600E-1	1.573371E-1	1.663095E-1	1.661919E-1	1.707241E-1	1.672377E-1	1.813806E-1	1.832483E-1	1.728471E-1	1.624808E-1	1.749466E-1	1.685809E-1	1.645910E-1	1.771100E-1	1.963643E-1	1.406926E-1	1.605939E-1	1.636499E-1	1.706254E-1	1.844440E-1	1.685737E-1	1.502096E-1	1.733568E-1	1.859543E-1	1.629127E-1	1.663830E-1	1.707864E-1	1.730762E-1	1.641604E-1	1.743252E-1	1.755206E-1	1.878660E-1	1.598408E-1	1.645507E-1	1.603465E-1	1.761319E-1	1.572688E-1	1.900604E-1	1.689593E-1	1.808294E-1	1.873106E-1	1.662166E-1	1.835927E-1	1.785749E-1	1.628666E-1	1.634173E-1	1.559227E-1	1.785115E-1	1.565174E-1	1.693508E-1	1.781768E-1	1.574372E-1	1.748362E-1	1.747618E-1	1.697644E-1	1.619224E-1	1.673800E-1	1.465950E-1	1.677814E-1	1.574902E-1	1.756356E-1	1.731658E-1	1.657475E-1	1.662057E-1	1.570441E-1	1.700719E-1	1.620972E-1	1.969633E-1	1.599138E-1	1.798151E-1	1.751600E-1	1.822475E-1	1.647797E-1	1.637711E-1	1.741147E-1	1.743864E-1	1.585323E-1	1.867223E-1	1.539681E-1	1.603735E-1	1.653304E-1	1.794318E-1	1.957901E-1	1.602808E-1	1.642417E-1	1.564461E-1	1.471863E-1	1.501815E-1	1.674186E-1	1.570993E-1	1.613451E-1	1.834312E-1	1.812245E-1	1.954777E-1	1.568044E-1	1.789618E-1	1.466951E-1	1.853922E-1	1.878780E-1	1.507323E-1	1.799025E-1	1.385505E-1	1.630061E-1	1.531126E-1	1.613430E-1	1.847984E-1	1.623808E-1	1.646202E-1	1.718436E-1	1.773823E-1	1.579225E-1	1.729495E-1	1.565607E-1	1.795501E-1	1.704879E-1	1.801868E-1	2.007400E-1	1.879647E-1	1.822578E-1	1.626757E-1	1.635856E-1	1.740150E-1	1.847317E-1	1.798019E-1	1.515402E-1	1.530188E-1	1.899687E-1
2.847020E+2	4.346579E-1	4.413947E-1	4.028639E-1	4.368698E-1	4.570940E-1	4.538058E-1	4.259715E-1	4.676723E-1	4.065998E-1	4.367614E-1	4.351193E-1	4.464573E-1	4.448188E-1	4.448746E-1	4.708199E-1	4.139190E-1	4.476209E-1	4.541415E-1	4.499708E-1	4.037498E-1	4.457331E-1	4.330319E-1	4.402537E-1	4.315483E-1	4.434289E-1	4.619137E-1	4.504983E-1	3.962622E-1	4.501739E-1	3.964506E-1	4.329868E-1	4.385249E-1	4.053613E-1	4.023656E-1	4.397140E-1	4.259171E-1	4.492974E-1	4.445936E-1	4.426651E-1	4.284327E-1	4.345288E-1	4.607470E-1	4.335681E-1	4.360181E-1	4.352392E-1	4.721215E-1	4.687482E-1	4.552258E-1	4.326370E-1	4.389098E-1	4.653463E-1	4.441379E-1	4.009677E-1	4.180742E-1	4.119692E-1	3.975410E-1	4.248004E-1	4.419843E-1	4.492876E-1	4.630556E-1	4.568937E-1	4.486798E-1	4.724315E-1	4.437717E-1	4.677472E-1	3.915055E-1	4.508449E-1	4.677418E-1	4.321135E-1	4.162390E-1	4.250576E-1	4.337192E-1	4.691684E-1	4.409258E-1	4.226115E-1	4.250743E-1	4.389100E-1	4.251222E-1	4.104391E-1	4.458525E-1	4.644504E-1	4.256828E-1	4.359236E-1	4.450556E-1	4.320124E-1	3.751248E-1	4.409102E-1	3.998692E-1	4.330540E-1	4.278517E-1	4.060097E-1	4.181358E-1	4.636142E-1	4.520786E-1	4.477920E-1	4.609256E-1	4.289274E-1	4.243661E-1	4.366647E-1	3.782208E-1	4.672143E-1	4.419425E-1	4.472408E-1	4.217596E-1	4.807028E-1	4.355621E-1	4.493256E-1	4.385505E-1	4.552392E-1	4.006365E-1	4.128709E-1	4.792362E-1	4.347981E-1	4.308416E-1	4.008849E-1	4.329045E-1	4.406500E-1	4.494752E-1	4.246453E-1	4.754232E-1	4.412258E-1	4.478089E-1	4.357335E-1	4.639636E-1	4.097226E-1	4.437428E-1	4.433428E-1	4.516706E-1	4.027439E-1	4.530799E-1	4.394953E-1	4.482600E-1	4.405080E-1	4.715953E-1	4.301619E-1	4.117064E-1	4.320910E-1	4.407509E-1	4.491188E-1	4.228266E-1	4.291636E-1	4.257498E-1	4.164213E-1	4.443268E-1	4.453621E-1	4.251707E-1	3.953876E-1	4.331080E-1	4.462010E-1	3.960348E-1	4.312805E-1	4.431697E-1	4.092394E-1	4.395508E-1	4.423668E-1	4.143407E-1	4.354563E-1	4.378227E-1	4.349999E-1	4.467774E-1	4.522269E-1	4.312595E-1	4.559671E-1	4.438151E-1	4.280391E-1	4.437854E-1	4.443862E-1	4.694491E-1	4.047056E-1	4.277287E-1	4.170702E-1
2.848000E+2	8.467895E-1	9.193086E-1	8.363648E-1	8.685493E-1	8.764891E-1	9.380543E-1	8.881373E-1	8.954977E-1	8.498801E-1	9.167333E-1	9.106494E-1	8.519324E-1	8.657870E-1	8.829486E-1	8.661138E-1	8.659648E-1	8.733075E-1	9.289413E-1	8.938833E-1	9.174731E-1	8.240218E-1	8.624936E-1	8.632107E-1	8.914103E-1	8.533467E-1	8.913153E-1	8.586880E-1	8.697266E-1	8.832249E-1	8.812514E-1	8.613560E-1	8.820788E-1	8.679585E-1	8.828582E-1	8.762870E-1	8.480963E-1	8.795025E-1	8.788275E-1	8.777409E-1	8.797748E-1	8.418994E-1	8.963310E-1	9.030259E-1	8.314569E-1	8.187592E-1	8.769216E-1	8.754409E-1	8.752245E-1	8.416283E-1	8.431937E-1	8.994601E-1	8.134845E-1	8.692311E-1	8.756301E-1	8.354661E-1	8.988286E-1	8.519465E-1	9.153341E-1	8.643830E-1	8.851945E-1	8.533309E-1	9.309666E-1	8.291008E-1	8.595426E-1	9.121395E-1	8.389241E-1	8.751301E-1	8.930304E-1	8.896756E-1	8.926782E-1	8.493455E-1	8.709743E-1	8.938080E-1	8.369235E-1	8.109528E-1	8.898618E-1	9.104517E-1	7.905927E-1	8.734876E-1	8.756198E-1	8.607150E-1	8.721993E-1	8.783315E-1	8.909177E-1	8.389143E-1	8.688459E-1	8.736719E-1	8.333163E-1	8.654714E-1	8.587100E-1	8.424910E-1	8.650170E-1	8.442804E-1	8.624636E-1	9.185766E-1	8.677746E-1	8.420381E-1	8.068217E-1	8.919607E-1	8.096106E-1	8.919129E-1	8.212451E-1	8.644540E-1	8.717090E-1	9.284981E-1	8.487444E-1	9.171740E-1	9.071342E-1	8.776335E-1	8.718296E-1	8.849531E-1	8.852222E-1	8.288528E-1	8.985361E-1	8.769597E-1	8.663129E-1	8.814698E-1	8.383542E-1	8.539704E-1	9.019110E-1	8.864251E-1	8.355942E-1	8.228861E-1	8.705637E-1	8.427657E-1	9.096335E-1	8.710117E-1	8.902280E-1	8.558495E-1	8.328011E-1	8.933976E-1	9.030213E-1	8.466918E-1	8.702027E-1	8.814251E-1	8.791147E-1	8.943833E-1	8.727288E-1	8.554687E-1	9.349076E-1	9.066244E-1	8.668315E-1	8.585012E-1	8.571571E-1	8.071227E-1	8.396749E-1	8.505932E-1	8.620972E-1	8.900070E-1	9.165239E-1	8.750978E-1	8.575790E-1	8.599175E-1	8.500379E-1	8.948633E-1	8.647216E-1	8.696971E-1	8.382098E-1	8.629058E-1	8.714057E-1	8.456625E-1	9.091673E-1	8.176694E-1	8.966614E-1	8.620035E-1	9.156597E-1	9.078622E-1	9.263885E-1	8.863294E-1	9.382515E-1	9.802727E-1
2.849040E+2	1.049441E+0	1.046831E+0	1.027946E+0	1.011112E+0	1.067023E+0	1.042632E+0	1.061932E+0	1.087522E+0	1.103616E+0	1.005454E+0	1.048811E+0	1.048521E+0	1.027622E+0	1.047601E+0	9.794554E-1	1.028064E+0	1.064999E+0	1.092481E+0	1.088055E+0	1.002490E+0	1.098723E+0	9.991611E-1	1.042767E+0	1.075358E+0	1.058974E+0	1.103948E+0	1.028414E+0	1.015150E+0	1.027440E+0	1.052281E+0	1.041479E+0	1.006971E+0	1.080419E+0	1.035386E+0	1.096992E+0	9.800768E-1	1.042732E+0	1.043413E+0	1.050027E+0	1.086354E+0	1.048014E+0	1.059041E+0	1.003292E+0	1.062448E+0	1.031290E+0	1.054188E+0	1.082425E+0	1.052014E+0	1.039691E+0	1.050187E+0	1.071568E+0	1.044608E+0	1.065833E+0	1.062849E+0	1.062682E+0	1.065794E+0	1.038806E+0	1.008735E+0	1.062073E+0	1.079327E+0	1.038570E+0	1.071863E+0	1.002837E+0	1.052060E+0	1.034597E+0	1.002054E+0	1.022664E+0	1.058378E+0	1.046665E+0	1.099419E+0	1.014940E+0	1.043777E+0	1.048682E+0	1.020416E+0	1.033058E+0	1.076290E+0	1.070357E+0	1.060120E+0	1.032234E+0	1.061833E+0	1.048842E+0	1.008335E+0	1.032290E+0	1.052965E+0	9.815335E-1	1.047614E+0	1.033827E+0	1.014222E+0	1.040496E+0	1.064066E+0	1.033338E+0	1.078419E+0	1.038204E+0	1.052841E+0	1.057542E+0	1.067751E+0	1.037783E+0	1.059543E+0	1.077233E+0	9.895712E-1	1.062809E+0	1.068068E+0	1.075837E+0	1.071820E+0	1.103525E+0	1.001399E+0	1.091491E+0	1.072067E+0	9.888339E-1	1.030580E+0	1.077133E+0	1.081906E+0	1.005772E+0	1.038304E+0	1.058913E+0	1.006802E+0	1.048472E+0	1.008145E+0	1.023440E+0	1.058636E+0	1.087712E+0	1.042247E+0	1.004059E+0	1.031927E+0	1.063565E+0	1.040520E+0	1.054739E+0	1.035930E+0	1.031156E+0	1.052377E+0	1.063688E+0	1.086728E+0	1.032080E+0	1.057174E+0	1.066311E+0	9.636056E-1	1.033117E+0	1.061705E+0	1.027138E+0	1.067484E+0	1.073356E+0	1.027183E+0	1.055112E+0	1.054246E+0	1.052602E+0	1.079785E+0	1.039906E+0	1.073546E+0	1.024853E+0	1.019904E+0	9.650062E-1	1.086596E+0	9.979673E-1	1.024551E+0	1.131330E+0	1.015501E+0	1.044767E+0	1.082985E+0	1.065344E+0	1.072844E+0	1.037889E+0	1.074342E+0	1.036649E+0	1.037070E+0	1.066401E+0	1.103249E+0	9.386690E-1	1.110291E+0	1.039740E+0	1.076513E+0	1.077859E+0
2.850010E+2	9.128788E-1	8.911926E-1	9.377631E-1	8.962440E-1	9.043151E-1	9.565524E-1	9.140075E-1	9.915340E-1	8.815651E-1	9.719990E-1	8.867820E-1	9.374623E-1	8.762312E-1	9.186360E-1	9.264919E-1	9.377491E-1	9.074772E-1	9.315049E-1	9.498589E-1	8.796278E-1	8.991935E-1	8.571211E-1	8.985044E-1	8.591203E-1	9.273506E-1	9.224054E-1	9.060317E-1	8.732403E-1	9.151603E-1	8.809411E-1	9.224459E-1	8.450298E-1	1.001989E+0	9.516903E-1	9.232688E-1	8.850600E-1	8.723664E-1	8.941676E-1	9.159464E-1	9.107750E-1	9.417043E-1	9.055125E-1	9.538617E-1	8.543833E-1	9.448225E-1	8.755859E-1	9.251734E-1	9.574964E-1	9.075826E-1	9.192172E-1	9.434591E-1	8.881840E-1	8.779085E-1	9.202183E-1	9.157933E-1	8.688685E-1	9.105935E-1	9.189412E-1	9.468047E-1	9.522160E-1	8.937477E-1	9.053307E-1	8.980621E-1	8.787222E-1	9.249100E-1	8.917048E-1	8.887980E-1	9.265447E-1	8.614924E-1	8.864730E-1	9.054653E-1	9.167799E-1	8.917869E-1	8.822743E-1	8.848074E-1	8.963150E-1	9.602047E-1	8.805314E-1	9.123267E-1	8.842067E-1	9.323841E-1	9.304712E-1	8.828756E-1	9.107486E-1	9.345129E-1	9.111709E-1	8.877924E-1	9.256535E-1	9.089246E-1	8.704957E-1	9.277812E-1	8.667247E-1	9.207816E-1	8.972857E-1	9.523952E-1	9.108476E-1	8.541178E-1	8.894443E-1	9.192884E-1	9.253129E-1	8.941528E-1	9.159835E-1	8.517985E-1	9.098242E-1	9.270541E-1	8.753170E-1	9.071566E-1	9.338654E-1	9.079058E-1	9.469645E-1	9.017417E-1	9.074833E-1	9.027911E-1	9.596438E-1	8.896206E-1	9.058138E-1	8.980568E-1	9.269702E-1	8.848931E-1	8.769790E-1	9.113744E-1	8.790844E-1	8.524511E-1	9.223214E-1	8.637953E-1	9.498012E-1	9.479341E-1	8.657595E-1	9.461268E-1	8.828936E-1	9.224053E-1	8.979825E-1	8.894217E-1	8.779478E-1	8.784729E-1	8.797641E-1	9.150135E-1	8.941649E-1	8.937130E-1	9.160147E-1	8.568572E-1	9.018340E-1	9.207733E-1	8.854121E-1	8.756502E-1	8.974083E-1	8.422627E-1	8.841565E-1	8.869333E-1	9.270929E-1	8.744421E-1	9.212480E-1	9.060833E-1	9.312070E-1	9.231100E-1	9.196145E-1	9.219461E-1	9.196672E-1	9.153060E-1	9.377982E-1	9.408167E-1	9.268449E-1	9.186357E-1	9.289501E-1	9.152496E-1	9.147200E-1	9.097373E-1	9.052606E-1	9.035284E-1	9.831248E-1	9.319548E-1
2.851030E+2	8.990784E-1	8.825579E-1	8.592304E-1	8.156348E-1	8.559873E-1	8.554298E-1	8.376680E-1	8.220515E-1	8.286288E-1	8.184062E-1	8.998469E-1	8.710311E-1	8.472740E-1	8.646441E-1	8.590647E-1	8.146252E-1	8.553756E-1	8.353638E-1	8.280905E-1	7.738635E-1	8.183317E-1	8.525914E-1	8.252340E-1	8.750008E-1	8.518434E-1	8.330843E-1	7.578984E-1	8.603027E-1	8.297901E-1	8.762668E-1	9.016012E-1	8.538442E-1	8.749835E-1	8.214964E-1	8.707715E-1	8.306626E-1	8.323500E-1	8.263935E-1	8.258291E-1	7.928946E-1	8.212945E-1	8.186363E-1	8.312173E-1	8.244268E-1	8.168241E-1	8.400642E-1	8.709374E-1	8.441907E-1	8.087329E-1	8.056594E-1	8.382415E-1	8.239109E-1	8.502184E-1	8.270910E-1	8.433379E-1	8.387015E-1	7.982925E-1	8.268064E-1	8.634995E-1	8.494479E-1	8.223296E-1	8.659083E-1	8.065231E-1	8.566067E-1	8.224336E-1	8.650310E-1	8.364548E-1	8.556158E-1	8.679008E-1	8.102152E-1	8.506742E-1	8.742246E-1	8.254576E-1	7.339951E-1	8.362884E-1	7.941787E-1	8.469821E-1	8.260415E-1	8.015325E-1	8.571545E-1	8.830233E-1	8.236779E-1	8.658412E-1	8.472511E-1	8.348913E-1	8.281365E-1	8.455017E-1	8.238503E-1	8.326920E-1	8.179385E-1	8.396763E-1	8.103144E-1	8.373313E-1	8.511654E-1	8.417641E-1	8.344763E-1	8.095584E-1	8.107154E-1	8.374635E-1	8.303692E-1	8.197975E-1	7.832511E-1	8.595793E-1	8.454592E-1	9.030344E-1	8.353106E-1	8.437928E-1	8.629398E-1	8.622173E-1	8.219577E-1	7.872365E-1	8.506233E-1	8.402401E-1	7.841731E-1	8.099712E-1	8.351493E-1	8.187481E-1	8.610548E-1	8.256364E-1	8.181098E-1	8.556800E-1	8.414421E-1	8.003491E-1	8.659381E-1	8.156834E-1	8.685002E-1	8.293955E-1	8.185404E-1	8.178722E-1	8.113427E-1	8.791901E-1	8.746618E-1	8.460484E-1	8.818329E-1	8.423086E-1	8.440676E-1	8.427231E-1	8.348989E-1	8.271354E-1	8.502640E-1	8.691356E-1	7.977901E-1	8.551960E-1	8.151191E-1	8.495679E-1	8.388536E-1	7.732505E-1	8.601484E-1	7.955008E-1	8.385338E-1	8.090007E-1	7.981874E-1	8.379533E-1	8.116292E-1	8.221823E-1	8.344057E-1	7.764846E-1	8.296126E-1	8.030417E-1	8.236832E-1	7.946393E-1	8.150154E-1	8.385430E-1	8.122571E-1	8.845774E-1	8.702590E-1	8.149997E-1	8.747024E-1	7.827838E-1	9.148156E-1	7.453709E-1
2.852020E+2	7.791479E-1	7.513985E-1	7.445428E-1	7.348286E-1	7.800459E-1	7.982514E-1	7.679370E-1	7.351055E-1	7.771110E-1	7.516366E-1	8.099621E-1	7.628849E-1	7.386258E-1	8.234163E-1	7.674533E-1	7.762511E-1	7.581281E-1	7.712261E-1	8.034702E-1	7.785615E-1	7.452871E-1	7.851788E-1	7.689125E-1	7.410389E-1	7.648441E-1	8.049262E-1	7.822791E-1	7.647285E-1	7.759294E-1	7.515643E-1	7.763718E-1	7.363065E-1	7.714837E-1	8.007791E-1	7.602043E-1	6.949159E-1	7.440391E-1	7.608733E-1	7.623862E-1	7.327410E-1	7.663771E-1	7.591247E-1	7.631359E-1	7.378405E-1	7.751814E-1	7.587133E-1	7.822994E-1	7.817164E-1	7.447678E-1	7.044902E-1	7.836994E-1	8.119385E-1	7.793106E-1	7.581651E-1	7.534875E-1	8.050721E-1	7.655159E-1	7.769764E-1	8.054161E-1	7.356591E-1	7.724417E-1	7.633293E-1	7.561529E-1	7.407904E-1	7.368019E-1	7.758071E-1	7.801155E-1	7.412483E-1	7.679735E-1	7.641478E-1	7.398613E-1	8.122578E-1	7.815023E-1	7.606865E-1	7.404775E-1	7.652166E-1	7.271888E-1	7.701779E-1	8.091457E-1	7.516905E-1	7.626380E-1	7.621132E-1	8.160151E-1	7.378062E-1	7.975111E-1	7.842270E-1	7.770148E-1	7.823906E-1	7.842869E-1	7.871188E-1	7.695217E-1	7.331504E-1	7.333263E-1	7.662369E-1	7.474807E-1	7.853493E-1	7.470022E-1	7.646210E-1	7.487881E-1	8.093228E-1	7.688566E-1	7.904904E-1	7.715549E-1	7.529741E-1	7.728720E-1	7.882122E-1	7.754398E-1	8.053985E-1	7.546786E-1	7.705435E-1	7.833241E-1	8.004632E-1	7.680075E-1	7.678247E-1	7.974383E-1	7.647910E-1	7.302379E-1	7.758849E-1	7.430228E-1	7.861662E-1	7.903726E-1	7.535156E-1	6.907412E-1	7.214580E-1	7.418770E-1	7.595336E-1	7.665646E-1	7.448542E-1	8.264944E-1	7.616369E-1	7.919199E-1	7.819576E-1	7.245872E-1	7.980304E-1	7.464223E-1	7.646758E-1	7.808764E-1	7.761754E-1	7.568861E-1	7.624413E-1	7.614760E-1	8.063243E-1	8.443202E-1	7.813514E-1	7.460820E-1	7.299959E-1	7.545942E-1	8.234173E-1	7.708373E-1	7.895314E-1	7.318789E-1	7.885463E-1	8.032518E-1	7.866263E-1	7.872508E-1	7.414453E-1	7.430235E-1	7.919478E-1	7.565274E-1	7.610349E-1	7.899599E-1	8.045684E-1	8.106726E-1	7.725414E-1	7.463426E-1	7.275679E-1	7.517555E-1	7.934842E-1	7.713454E-1	8.338241E-1	7.000081E-1
2.853020E+2	6.079363E-1	5.959064E-1	6.033480E-1	6.263967E-1	6.238955E-1	6.119467E-1	5.991171E-1	6.049914E-1	5.853513E-1	6.033369E-1	6.018436E-1	6.137923E-1	5.983840E-1	6.078056E-1	6.404965E-1	6.031555E-1	5.861807E-1	5.955257E-1	6.520986E-1	5.907320E-1	5.835489E-1	5.833235E-1	6.086853E-1	6.237462E-1	6.104299E-1	6.361914E-1	6.088275E-1	6.274375E-1	6.360302E-1	6.302253E-1	6.341321E-1	6.206505E-1	6.501361E-1	6.178425E-1	5.979914E-1	5.975221E-1	6.302934E-1	6.167114E-1	6.022953E-1	5.999971E-1	6.086160E-1	6.452436E-1	5.805988E-1	5.826249E-1	6.115546E-1	6.243247E-1	6.347957E-1	6.311771E-1	6.319546E-1	5.857181E-1	5.992277E-1	5.776806E-1	5.611088E-1	5.932347E-1	6.111886E-1	5.914803E-1	5.669306E-1	6.071704E-1	6.203532E-1	6.196895E-1	5.884908E-1	6.096580E-1	6.152451E-1	5.996010E-1	5.901027E-1	6.130408E-1	6.544671E-1	6.183912E-1	6.057231E-1	6.099001E-1	6.119012E-1	5.893541E-1	5.753569E-1	5.883755E-1	6.047407E-1	6.389492E-1	6.421020E-1	5.946465E-1	6.282257E-1	5.835819E-1	6.155952E-1	6.286278E-1	6.178580E-1	5.964120E-1	5.776353E-1	5.810086E-1	6.098240E-1	5.964001E-1	6.022824E-1	6.288169E-1	6.113717E-1	5.982801E-1	5.846063E-1	5.974539E-1	6.653489E-1	6.296631E-1	6.006522E-1	5.732626E-1	6.263209E-1	5.914843E-1	6.048156E-1	5.863135E-1	6.145613E-1	6.283522E-1	6.221742E-1	6.029881E-1	6.023006E-1	6.149567E-1	6.094338E-1	6.316335E-1	6.046509E-1	5.860064E-1	6.950550E-1	6.208651E-1	6.085239E-1	6.188550E-1	6.055102E-1	6.443606E-1	6.131669E-1	5.989469E-1	5.863760E-1	5.925926E-1	6.072781E-1	6.031008E-1	5.752602E-1	6.173540E-1	6.272355E-1	6.051963E-1	5.977133E-1	6.258646E-1	6.000383E-1	5.837860E-1	5.878364E-1	6.185281E-1	5.834465E-1	6.167723E-1	6.360050E-1	6.290656E-1	5.653501E-1	6.189676E-1	6.221000E-1	6.197865E-1	5.980875E-1	6.127047E-1	6.134757E-1	5.872512E-1	5.890565E-1	6.246330E-1	6.474650E-1	5.994441E-1	5.864365E-1	6.170680E-1	5.835954E-1	5.686643E-1	6.006716E-1	6.021911E-1	5.897730E-1	5.974302E-1	6.325932E-1	5.868435E-1	6.104682E-1	6.412200E-1	6.329487E-1	6.533938E-1	6.190050E-1	6.271836E-1	6.053521E-1	6.426255E-1	6.133326E-1	6.561655E-1	6.405463E-1
2.854040E+2	3.862871E-1	3.931360E-1	3.955978E-1	4.199711E-1	4.010734E-1	3.871129E-1	4.286284E-1	3.893761E-1	4.108481E-1	4.207422E-1	4.075727E-1	3.951316E-1	4.234280E-1	3.918637E-1	4.021271E-1	4.100442E-1	4.078089E-1	3.953538E-1	4.234891E-1	3.877161E-1	3.728261E-1	3.692061E-1	4.120629E-1	4.144916E-1	4.176379E-1	4.246198E-1	3.980991E-1	4.294269E-1	4.503325E-1	3.902621E-1	4.027407E-1	4.046512E-1	4.106864E-1	4.004988E-1	4.142683E-1	3.893696E-1	3.954204E-1	3.689591E-1	3.982486E-1	4.164136E-1	3.696215E-1	4.037069E-1	3.797092E-1	3.862379E-1	3.763985E-1	3.925640E-1	3.916472E-1	4.013027E-1	4.091255E-1	3.972161E-1	3.858105E-1	4.033631E-1	3.905711E-1	3.803126E-1	3.876981E-1	4.181924E-1	3.926168E-1	3.827121E-1	3.930257E-1	3.980335E-1	3.829678E-1	4.166495E-1	4.095673E-1	4.264032E-1	3.969774E-1	3.956324E-1	3.806737E-1	4.146232E-1	4.015738E-1	3.963630E-1	4.023761E-1	4.281140E-1	3.995050E-1	4.143951E-1	3.869127E-1	4.105895E-1	3.886892E-1	4.167262E-1	4.394343E-1	4.001698E-1	4.242645E-1	3.826646E-1	4.185707E-1	4.131196E-1	4.217443E-1	3.857372E-1	3.800775E-1	3.772165E-1	4.255360E-1	4.115433E-1	4.297126E-1	4.117287E-1	3.990613E-1	3.928454E-1	4.048825E-1	3.896786E-1	4.469510E-1	3.930831E-1	3.902072E-1	3.785648E-1	4.146363E-1	4.144296E-1	3.708876E-1	4.076826E-1	4.224956E-1	3.777545E-1	4.235730E-1	4.185004E-1	4.149707E-1	4.311747E-1	4.051104E-1	3.933168E-1	3.837640E-1	3.939693E-1	3.817916E-1	4.037468E-1	4.274700E-1	4.012076E-1	4.059779E-1	4.009500E-1	4.125335E-1	3.794779E-1	3.767534E-1	3.907258E-1	3.973570E-1	4.193278E-1	4.009829E-1	4.100215E-1	4.023583E-1	4.019734E-1	3.917834E-1	4.122755E-1	4.093103E-1	3.998549E-1	3.657849E-1	3.977483E-1	3.943640E-1	4.004042E-1	3.923127E-1	4.253348E-1	4.018190E-1	3.969611E-1	4.271484E-1	4.059938E-1	3.740116E-1	4.201509E-1	3.994483E-1	4.156326E-1	4.233989E-1	4.035573E-1	4.217256E-1	3.731316E-1	4.315135E-1	4.053985E-1	3.983664E-1	4.083255E-1	4.120059E-1	3.930351E-1	4.204061E-1	4.108866E-1	4.152058E-1	4.286218E-1	4.162675E-1	4.147761E-1	4.055275E-1	4.319729E-1	4.201471E-1	4.134633E-1	3.888464E-1	3.655591E-1	3.861526E-1
2.855030E+2	2.880378E-1	2.855957E-1	2.822637E-1	2.922502E-1	3.088635E-1	2.859167E-1	3.111643E-1	3.149769E-1	3.023081E-1	3.114291E-1	3.080734E-1	2.841912E-1	3.069808E-1	3.165583E-1	3.128506E-1	2.906503E-1	2.919897E-1	3.174005E-1	3.139621E-1	2.997019E-1	2.947826E-1	2.822719E-1	2.910853E-1	3.077425E-1	3.417934E-1	3.169852E-1	3.021681E-1	2.947891E-1	3.216684E-1	2.946123E-1	3.125257E-1	3.030090E-1	2.992538E-1	2.956724E-1	3.213578E-1	2.877150E-1	2.917382E-1	2.785900E-1	2.806422E-1	3.073518E-1	2.885309E-1	3.081797E-1	2.993015E-1	2.813546E-1	3.021781E-1	3.382532E-1	3.006136E-1	3.250731E-1	2.996133E-1	3.153478E-1	3.070210E-1	2.985206E-1	2.985301E-1	2.763917E-1	2.858360E-1	3.033890E-1	2.458259E-1	2.868658E-1	2.878147E-1	3.191357E-1	3.161647E-1	2.905675E-1	3.181455E-1	3.218588E-1	2.913347E-1	2.985130E-1	3.134626E-1	3.304862E-1	2.988611E-1	2.799573E-1	3.099430E-1	2.830413E-1	3.030089E-1	2.818040E-1	2.941094E-1	3.225660E-1	2.833751E-1	2.795519E-1	2.925224E-1	2.838128E-1	3.025017E-1	2.928401E-1	3.125642E-1	3.081252E-1	2.912786E-1	2.897435E-1	3.098191E-1	2.763197E-1	3.178229E-1	2.994143E-1	3.120552E-1	2.638221E-1	2.744362E-1	3.082584E-1	3.267579E-1	3.021635E-1	2.902158E-1	2.843773E-1	2.741290E-1	3.143781E-1	2.709180E-1	2.929714E-1	2.895130E-1	3.308501E-1	2.928109E-1	3.111648E-1	3.238493E-1	2.994300E-1	2.905510E-1	3.310626E-1	2.970843E-1	3.288066E-1	2.987068E-1	3.044010E-1	2.696969E-1	3.001199E-1	3.149355E-1	2.926939E-1	3.087298E-1	2.943951E-1	2.889879E-1	3.143320E-1	2.966371E-1	3.031212E-1	2.898425E-1	2.875717E-1	2.612739E-1	3.077958E-1	2.905135E-1	3.045590E-1	3.131767E-1	3.340468E-1	3.343321E-1	3.184556E-1	2.694964E-1	2.938044E-1	3.051939E-1	3.288037E-1	2.904875E-1	3.059865E-1	2.819313E-1	3.160863E-1	2.822938E-1	2.886600E-1	2.923176E-1	2.954914E-1	3.002180E-1	3.067142E-1	3.180901E-1	2.782991E-1	3.114326E-1	2.953686E-1	3.120584E-1	3.153553E-1	3.085172E-1	3.360996E-1	3.063389E-1	3.032969E-1	3.028826E-1	3.020827E-1	3.023609E-1	3.022399E-1	3.138801E-1	3.170338E-1	2.984730E-1	3.321165E-1	2.887680E-1	2.931681E-1	2.708504E-1	3.077757E-1	2.698398E-1
2.856030E+2	2.571278E-1	2.854365E-1	2.698360E-1	2.654605E-1	3.189291E-1	2.676039E-1	2.430443E-1	2.729395E-1	2.827537E-1	2.921805E-1	2.773451E-1	2.750268E-1	2.602990E-1	3.070682E-1	2.760744E-1	2.914326E-1	2.905943E-1	2.764983E-1	2.912105E-1	2.730030E-1	2.698234E-1	2.685866E-1	2.733461E-1	2.614724E-1	3.147185E-1	2.872269E-1	3.023986E-1	2.685265E-1	2.638028E-1	2.752226E-1	2.872112E-1	2.764256E-1	2.546286E-1	2.557183E-1	2.855818E-1	2.667334E-1	2.894154E-1	2.768882E-1	2.899699E-1	2.865414E-1	2.549427E-1	2.951442E-1	2.592829E-1	2.648050E-1	2.558966E-1	2.903110E-1	2.717599E-1	2.565126E-1	2.617125E-1	2.502791E-1	2.965751E-1	2.653267E-1	2.745312E-1	2.817521E-1	2.659973E-1	2.912902E-1	2.607805E-1	2.876979E-1	2.573710E-1	2.876876E-1	2.717338E-1	3.007050E-1	2.989599E-1	2.685215E-1	3.013622E-1	3.038629E-1	2.689532E-1	2.734180E-1	2.655521E-1	2.499384E-1	2.689448E-1	2.715312E-1	2.865538E-1	2.874972E-1	2.845826E-1	2.937661E-1	2.607589E-1	2.816864E-1	2.991744E-1	2.731590E-1	2.868650E-1	2.684823E-1	2.785029E-1	2.764836E-1	2.603825E-1	2.625677E-1	2.888545E-1	2.981169E-1	2.757406E-1	2.733331E-1	2.758208E-1	2.798381E-1	2.781389E-1	2.891436E-1	2.839432E-1	2.768115E-1	2.807093E-1	2.831506E-1	2.807691E-1	2.973680E-1	2.535801E-1	2.876436E-1	2.798101E-1	2.741436E-1	2.741938E-1	2.716891E-1	2.892253E-1	2.947360E-1	2.921474E-1	2.732319E-1	2.843976E-1	2.680146E-1	2.544417E-1	2.845587E-1	2.623706E-1	2.606935E-1	2.816293E-1	2.664312E-1	2.818383E-1	2.704641E-1	2.929801E-1	2.918171E-1	2.832444E-1	2.765028E-1	2.683904E-1	2.705921E-1	2.486940E-1	3.026393E-1	2.750627E-1	3.010488E-1	2.772151E-1	2.594969E-1	2.710405E-1	2.966171E-1	2.736384E-1	2.693468E-1	2.724206E-1	2.588375E-1	2.818633E-1	2.620633E-1	2.857242E-1	2.640583E-1	2.679166E-1	3.055214E-1	2.653377E-1	2.596964E-1	2.899339E-1	2.810852E-1	2.596991E-1	3.027464E-1	2.760087E-1	2.804109E-1	2.636889E-1	2.735511E-1	2.700152E-1	3.147064E-1	2.735026E-1	2.894482E-1	2.627440E-1	2.737851E-1	2.841363E-1	2.681307E-1	2.640463E-1	3.107400E-1	2.538039E-1	2.975153E-1	2.896346E-1	3.026131E-1	2.678251E-1	3.038081E-1	2.372561E-1
2.858060E+2	3.262714E-1	3.232137E-1	3.158361E-1	3.004101E-1	3.389867E-1	3.056104E-1	3.240480E-1	2.886331E-1	3.316576E-1	3.282572E-1	2.909924E-1	3.152360E-1	3.215451E-1	2.989235E-1	3.028573E-1	3.074619E-1	3.227447E-1	3.123348E-1	3.147971E-1	3.018474E-1	3.072364E-1	2.934736E-1	3.051773E-1	2.935977E-1	2.942661E-1	3.162957E-1	3.001501E-1	3.082292E-1	3.314783E-1	3.018303E-1	3.227928E-1	3.046446E-1	3.326493E-1	3.310907E-1	3.117413E-1	2.890666E-1	3.313248E-1	3.187766E-1	2.880521E-1	2.830761E-1	2.870690E-1	3.069527E-1	2.661033E-1	2.835670E-1	3.009200E-1	3.202217E-1	2.946996E-1	2.957688E-1	3.229011E-1	3.081029E-1	3.037067E-1	3.025197E-1	2.953475E-1	3.362877E-1	3.151311E-1	3.180917E-1	2.982048E-1	3.111523E-1	3.166856E-1	2.884365E-1	2.858407E-1	3.079300E-1	2.997260E-1	3.199146E-1	3.136186E-1	3.241504E-1	3.087491E-1	3.055493E-1	3.019944E-1	2.867984E-1	3.256731E-1	3.178269E-1	2.943666E-1	3.070179E-1	3.119414E-1	2.945082E-1	2.978057E-1	2.923124E-1	2.897498E-1	3.224038E-1	3.207189E-1	2.671069E-1	2.978451E-1	2.978590E-1	3.089216E-1	3.009111E-1	3.070434E-1	3.024010E-1	2.939692E-1	3.096147E-1	3.036316E-1	3.248604E-1	3.070134E-1	3.107858E-1	3.128651E-1	3.323986E-1	3.212319E-1	2.992504E-1	3.165600E-1	2.941973E-1	3.347641E-1	3.085842E-1	3.239488E-1	2.952951E-1	3.290071E-1	3.265794E-1	2.922393E-1	3.303478E-1	3.249502E-1	2.939419E-1	2.788208E-1	3.134403E-1	2.865591E-1	3.082982E-1	2.970395E-1	2.991202E-1	3.174026E-1	3.052244E-1	2.985891E-1	2.959277E-1	2.970803E-1	3.008385E-1	3.109739E-1	2.930902E-1	3.081397E-1	3.380254E-1	3.172529E-1	2.892402E-1	3.041826E-1	3.076691E-1	3.203611E-1	3.158542E-1	2.944570E-1	3.198020E-1	3.096695E-1	3.028101E-1	3.060700E-1	3.180243E-1	3.159971E-1	3.061492E-1	2.909847E-1	3.294884E-1	3.349346E-1	2.985113E-1	3.156002E-1	3.043338E-1	3.100353E-1	2.940753E-1	3.327027E-1	3.089436E-1	3.127264E-1	3.286900E-1	3.301592E-1	2.882801E-1	3.125837E-1	2.872644E-1	3.151262E-1	2.938879E-1	3.073611E-1	3.294142E-1	2.866713E-1	2.991992E-1	3.007025E-1	3.003689E-1	3.190805E-1	2.983623E-1	3.047320E-1	3.248123E-1	3.335380E-1	3.171991E-1	3.231423E-1
2.860070E+2	4.433277E-1	4.622792E-1	4.919393E-1	5.046590E-1	4.622888E-1	5.062417E-1	4.853619E-1	4.653058E-1	4.708136E-1	4.680259E-1	4.741826E-1	4.756758E-1	4.698793E-1	4.598175E-1	4.792264E-1	4.693041E-1	4.859768E-1	4.613794E-1	4.676247E-1	4.537890E-1	4.696368E-1	4.459477E-1	4.403308E-1	4.717159E-1	4.775669E-1	4.662003E-1	4.757562E-1	4.473673E-1	4.994028E-1	4.877062E-1	4.795203E-1	4.764853E-1	4.741699E-1	4.736269E-1	4.704109E-1	4.375210E-1	4.878084E-1	4.774445E-1	4.865769E-1	4.781405E-1	4.398022E-1	5.191024E-1	4.493106E-1	5.204821E-1	4.571908E-1	4.821513E-1	4.837944E-1	4.455413E-1	4.765912E-1	4.597446E-1	5.104862E-1	4.706677E-1	4.721324E-1	4.477718E-1	4.393209E-1	4.120625E-1	4.450031E-1	4.930888E-1	4.825319E-1	4.893651E-1	4.524451E-1	4.830546E-1	4.356270E-1	4.630321E-1	4.719080E-1	4.766700E-1	4.934309E-1	4.731852E-1	4.509773E-1	5.175837E-1	4.208736E-1	4.924158E-1	4.702853E-1	4.356549E-1	4.630739E-1	4.915197E-1	4.430332E-1	4.766848E-1	5.025413E-1	4.549106E-1	5.111208E-1	4.504293E-1	4.806352E-1	4.868727E-1	4.690158E-1	4.733946E-1	4.707450E-1	4.609325E-1	4.643416E-1	4.617277E-1	4.933455E-1	4.644241E-1	4.562934E-1	4.419276E-1	4.611062E-1	5.076664E-1	4.731564E-1	4.515295E-1	4.858463E-1	4.739965E-1	4.755500E-1	4.788080E-1	4.670482E-1	4.590551E-1	4.606638E-1	4.971636E-1	4.723499E-1	4.936661E-1	4.981156E-1	4.621505E-1	4.931454E-1	4.749504E-1	4.656050E-1	4.740468E-1	4.613650E-1	4.676721E-1	4.730640E-1	4.884782E-1	4.568908E-1	4.917592E-1	4.666537E-1	4.657900E-1	4.830134E-1	4.531573E-1	4.887474E-1	4.887506E-1	4.892764E-1	4.770773E-1	4.530689E-1	4.827567E-1	4.875730E-1	4.525406E-1	4.683930E-1	4.849561E-1	4.617396E-1	4.413596E-1	4.256860E-1	4.850795E-1	3.922709E-1	4.758683E-1	4.781143E-1	4.596604E-1	4.947774E-1	4.807953E-1	4.601595E-1	4.719273E-1	4.315439E-1	5.093408E-1	5.078073E-1	4.697733E-1	4.622015E-1	4.753190E-1	4.978096E-1	5.091659E-1	4.840827E-1	4.636990E-1	4.620022E-1	4.612418E-1	4.741195E-1	4.698357E-1	5.122939E-1	5.072129E-1	4.894858E-1	4.942277E-1	4.671100E-1	4.702543E-1	4.643783E-1	5.253592E-1	4.849914E-1	5.004710E-1	5.877346E-1
2.862030E+2	6.315310E-1	6.943026E-1	6.688097E-1	6.198219E-1	7.003807E-1	6.857516E-1	7.152044E-1	6.511938E-1	6.613843E-1	6.765388E-1	6.421278E-1	6.762628E-1	7.097040E-1	6.947308E-1	6.674529E-1	6.886195E-1	7.132322E-1	6.806922E-1	6.521362E-1	6.896556E-1	6.645599E-1	6.486663E-1	6.868561E-1	6.540326E-1	6.716028E-1	6.791049E-1	6.732941E-1	6.639567E-1	6.550788E-1	6.438538E-1	6.650674E-1	6.862089E-1	6.700304E-1	6.417198E-1	6.386409E-1	6.830607E-1	6.695132E-1	6.560851E-1	6.358453E-1	6.763973E-1	6.934310E-1	6.958349E-1	6.729437E-1	6.896182E-1	6.604664E-1	6.751335E-1	6.754832E-1	6.721454E-1	7.524737E-1	6.980018E-1	6.470891E-1	6.350259E-1	6.666736E-1	6.798747E-1	6.600981E-1	6.786916E-1	6.664558E-1	6.767441E-1	6.827450E-1	6.588204E-1	6.465395E-1	6.682698E-1	6.531407E-1	6.893312E-1	6.832821E-1	6.733850E-1	6.613877E-1	6.273325E-1	6.583374E-1	6.468886E-1	6.692965E-1	6.895113E-1	6.487467E-1	6.395073E-1	6.675736E-1	6.774040E-1	6.744753E-1	6.684665E-1	6.820248E-1	7.057805E-1	6.928658E-1	6.667084E-1	6.755544E-1	6.862192E-1	7.066663E-1	6.608059E-1	6.658643E-1	6.869355E-1	6.597516E-1	6.727148E-1	6.713675E-1	7.108564E-1	7.102922E-1	6.742212E-1	7.072664E-1	6.620450E-1	6.562717E-1	6.670194E-1	6.745780E-1	6.617887E-1	6.804648E-1	6.854371E-1	6.645768E-1	6.753031E-1	7.096617E-1	6.861485E-1	6.666871E-1	7.186182E-1	6.665442E-1	6.469552E-1	6.571758E-1	6.991691E-1	6.536165E-1	6.798549E-1	6.761897E-1	6.835293E-1	6.620775E-1	6.934210E-1	6.996044E-1	6.833516E-1	6.657821E-1	6.539416E-1	6.761600E-1	6.620905E-1	6.695324E-1	6.831537E-1	6.915853E-1	6.585482E-1	6.713588E-1	7.223473E-1	6.237598E-1	6.840284E-1	7.021483E-1	6.588250E-1	6.901784E-1	6.536548E-1	7.013991E-1	6.870151E-1	6.556078E-1	6.824313E-1	7.121905E-1	6.827182E-1	7.037848E-1	6.533619E-1	6.887751E-1	6.865726E-1	6.683883E-1	6.878524E-1	6.778094E-1	7.081987E-1	6.717867E-1	6.707444E-1	6.676501E-1	6.880405E-1	6.820588E-1	7.030615E-1	6.301564E-1	6.801509E-1	7.164764E-1	6.596593E-1	7.005057E-1	6.894016E-1	7.052134E-1	6.535930E-1	6.773886E-1	6.634123E-1	6.377732E-1	6.724050E-1	7.088890E-1	6.454835E-1	6.895682E-1
2.864030E+2	7.982404E-1	8.578809E-1	8.597238E-1	8.272545E-1	8.725093E-1	8.867580E-1	8.635227E-1	8.640653E-1	8.671788E-1	8.197625E-1	8.861260E-1	8.614792E-1	8.430177E-1	8.310303E-1	8.379505E-1	8.707539E-1	8.049103E-1	8.689943E-1	8.732296E-1	8.166331E-1	8.579657E-1	8.671122E-1	7.996631E-1	8.461372E-1	8.344086E-1	8.517961E-1	8.308774E-1	8.628093E-1	9.283761E-1	8.465417E-1	8.460242E-1	8.696419E-1	8.859572E-1	8.654305E-1	8.106009E-1	8.594169E-1	8.146259E-1	8.155593E-1	8.354504E-1	8.253349E-1	8.666865E-1	8.741750E-1	8.263316E-1	8.173486E-1	8.095553E-1	8.688282E-1	8.398872E-1	8.518971E-1	8.671052E-1	8.382089E-1	8.384624E-1	8.367530E-1	7.963953E-1	8.219353E-1	8.313973E-1	8.403634E-1	8.480755E-1	7.955140E-1	8.327791E-1	8.382398E-1	8.253254E-1	8.027501E-1	8.287703E-1	8.437457E-1	8.329269E-1	8.448525E-1	8.513776E-1	8.454460E-1	8.611890E-1	8.411801E-1	8.134505E-1	8.760105E-1	8.814538E-1	8.379624E-1	8.451125E-1	8.246427E-1	8.586173E-1	7.952515E-1	8.472289E-1	8.818182E-1	9.028383E-1	8.546979E-1	8.223041E-1	8.764848E-1	8.067653E-1	8.156199E-1	8.478299E-1	7.997972E-1	8.482691E-1	8.564177E-1	8.683203E-1	8.643327E-1	8.315871E-1	8.678936E-1	8.742448E-1	8.623603E-1	8.614673E-1	8.329220E-1	8.343518E-1	7.901195E-1	8.008636E-1	8.559660E-1	8.492814E-1	8.481596E-1	8.835251E-1	8.811489E-1	8.599576E-1	8.547206E-1	8.297227E-1	8.789528E-1	8.605369E-1	8.444144E-1	8.340378E-1	8.301867E-1	8.161093E-1	8.444106E-1	8.014185E-1	8.831171E-1	8.537896E-1	8.752429E-1	9.105305E-1	8.833067E-1	8.551197E-1	8.517540E-1	8.592861E-1	8.406815E-1	8.299200E-1	8.437290E-1	8.210807E-1	8.627738E-1	8.542212E-1	8.301459E-1	8.333444E-1	8.359608E-1	8.046775E-1	8.308951E-1	9.392508E-1	8.149842E-1	8.121362E-1	8.771246E-1	8.851258E-1	8.244662E-1	8.526205E-1	8.092480E-1	8.487655E-1	8.525048E-1	8.392715E-1	8.578096E-1	7.832988E-1	8.193516E-1	8.059563E-1	8.827554E-1	8.675740E-1	8.595487E-1	8.335717E-1	8.354054E-1	8.364365E-1	8.264788E-1	8.836795E-1	8.669408E-1	8.626168E-1	8.259124E-1	8.377447E-1	8.462190E-1	8.304095E-1	8.657108E-1	8.683007E-1	8.890651E-1	8.990386E-1	9.073560E-1	8.741514E-1
2.866200E+2	8.797524E-1	9.355490E-1	8.508084E-1	8.689731E-1	8.894112E-1	9.451931E-1	8.850279E-1	8.771136E-1	9.226174E-1	9.048134E-1	8.806379E-1	9.326769E-1	8.961007E-1	8.799720E-1	9.073100E-1	8.821812E-1	9.183589E-1	8.792039E-1	8.557826E-1	9.126762E-1	8.692431E-1	8.918482E-1	9.009720E-1	9.139084E-1	9.069650E-1	8.697656E-1	8.727838E-1	9.094655E-1	9.437249E-1	8.706851E-1	8.887329E-1	9.143708E-1	8.843485E-1	9.369208E-1	8.639215E-1	9.007419E-1	9.085534E-1	8.731373E-1	8.768077E-1	8.813863E-1	9.165573E-1	8.950245E-1	8.808045E-1	8.875481E-1	8.506131E-1	9.000556E-1	8.972960E-1	9.010714E-1	8.346856E-1	8.996571E-1	8.929389E-1	9.019550E-1	8.503798E-1	9.349655E-1	8.828983E-1	7.940030E-1	9.237358E-1	8.640845E-1	9.241336E-1	8.874226E-1	8.708729E-1	8.630072E-1	9.024256E-1	9.121179E-1	9.419460E-1	8.835971E-1	9.225048E-1	9.008523E-1	9.052224E-1	8.893054E-1	8.812228E-1	9.322163E-1	9.132724E-1	8.753757E-1	8.821112E-1	8.833043E-1	9.159444E-1	8.942191E-1	8.640479E-1	9.099399E-1	9.044021E-1	9.324284E-1	9.261135E-1	8.673451E-1	8.615471E-1	9.080364E-1	9.286436E-1	9.468437E-1	9.132912E-1	8.558692E-1	8.898682E-1	9.774113E-1	9.070790E-1	8.681886E-1	8.656052E-1	9.371850E-1	8.688459E-1	8.816553E-1	8.410157E-1	8.654866E-1	9.066896E-1	9.040606E-1	8.314433E-1	9.342058E-1	9.294942E-1	8.661662E-1	8.810275E-1	8.517602E-1	8.707560E-1	9.118152E-1	9.029765E-1	8.739458E-1	8.763549E-1	8.836988E-1	8.643743E-1	8.823442E-1	8.990672E-1	9.360855E-1	8.652095E-1	9.099226E-1	9.172833E-1	8.570257E-1	8.702524E-1	9.084703E-1	8.856383E-1	8.938343E-1	8.938700E-1	9.250168E-1	8.620141E-1	9.231497E-1	8.547270E-1	9.075596E-1	9.017894E-1	9.423985E-1	8.803272E-1	9.193556E-1	9.300732E-1	8.318253E-1	9.060874E-1	9.091418E-1	9.367487E-1	9.053710E-1	8.927625E-1	8.903030E-1	8.923706E-1	8.781614E-1	9.093904E-1	9.046411E-1	9.423598E-1	9.211951E-1	8.536164E-1	8.942974E-1	8.886378E-1	8.955200E-1	9.382501E-1	9.006972E-1	8.953138E-1	8.718915E-1	9.003469E-1	9.155759E-1	8.725707E-1	9.288403E-1	9.028151E-1	9.177991E-1	8.966800E-1	8.700950E-1	8.742935E-1	9.382212E-1	9.656021E-1	9.041265E-1	8.490552E-1
2.868030E+2	1.053509E+0	1.098872E+0	1.103380E+0	1.072033E+0	1.073278E+0	1.077648E+0	1.124980E+0	1.061251E+0	1.050279E+0	1.079096E+0	1.062411E+0	1.113485E+0	1.115989E+0	1.127966E+0	1.081944E+0	1.100129E+0	1.102348E+0	1.096768E+0	1.100099E+0	1.103393E+0	1.064387E+0	1.066749E+0	1.063315E+0	1.035938E+0	1.092795E+0	1.094818E+0	1.039245E+0	1.144977E+0	1.069984E+0	1.036194E+0	1.091423E+0	1.104909E+0	1.008904E+0	1.091116E+0	1.046480E+0	1.006255E+0	1.067485E+0	1.041284E+0	1.059893E+0	1.066574E+0	1.030569E+0	1.108438E+0	1.096622E+0	1.031067E+0	1.035718E+0	1.086749E+0	1.093329E+0	1.070703E+0	1.047807E+0	1.033513E+0	1.066462E+0	1.057163E+0	1.080422E+0	1.096746E+0	1.046324E+0	1.025021E+0	1.065154E+0	1.052377E+0	1.079405E+0	1.055031E+0	1.095218E+0	1.036462E+0	1.070501E+0	1.075892E+0	1.080336E+0	1.034836E+0	1.094765E+0	1.095761E+0	1.042870E+0	1.043960E+0	1.043235E+0	1.064105E+0	1.062065E+0	1.059841E+0	1.044262E+0	1.058895E+0	1.085765E+0	1.053168E+0	1.058995E+0	1.099338E+0	1.102933E+0	1.065483E+0	1.081701E+0	1.079195E+0	1.071872E+0	1.044211E+0	1.039010E+0	1.023425E+0	1.109510E+0	1.070150E+0	1.086184E+0	1.059230E+0	1.118919E+0	1.108208E+0	1.120641E+0	1.092484E+0	1.039829E+0	1.062050E+0	1.026737E+0	1.010823E+0	1.095245E+0	1.021092E+0	1.073201E+0	1.081620E+0	1.085282E+0	1.018006E+0	1.031665E+0	1.122976E+0	1.040038E+0	1.051691E+0	1.088555E+0	1.099520E+0	9.799936E-1	1.083947E+0	1.107867E+0	1.059776E+0	1.013809E+0	1.078738E+0	1.039763E+0	1.078862E+0	1.119595E+0	1.072075E+0	1.102000E+0	1.032219E+0	1.012334E+0	1.133719E+0	1.034074E+0	1.035123E+0	1.053840E+0	1.083552E+0	1.047581E+0	1.094144E+0	1.026105E+0	1.044251E+0	1.027123E+0	1.125774E+0	1.068325E+0	1.060629E+0	1.035886E+0	1.096382E+0	1.048818E+0	1.072106E+0	1.045355E+0	1.057724E+0	1.058948E+0	1.025329E+0	1.054585E+0	1.102472E+0	1.044296E+0	1.046446E+0	1.047719E+0	1.109644E+0	1.085036E+0	1.082889E+0	1.121134E+0	1.080358E+0	1.070140E+0	1.073384E+0	1.050048E+0	1.091564E+0	1.040695E+0	1.089911E+0	9.786738E-1	1.035890E+0	1.104217E+0	1.059866E+0	1.057592E+0	1.148570E+0	1.088321E+0	1.082445E+0	1.105774E+0
2.870190E+2	9.312519E-1	8.880150E-1	8.758910E-1	8.318183E-1	8.774953E-1	8.765856E-1	9.203356E-1	9.413118E-1	8.738771E-1	9.499405E-1	8.983210E-1	8.744310E-1	9.186924E-1	8.360223E-1	8.746602E-1	8.912661E-1	8.673307E-1	9.527112E-1	8.740431E-1	9.019209E-1	9.107954E-1	8.622043E-1	8.318015E-1	8.504024E-1	8.970046E-1	9.101495E-1	8.566380E-1	8.937208E-1	9.081297E-1	8.633505E-1	8.972149E-1	9.069954E-1	9.035792E-1	8.674351E-1	8.631025E-1	8.689243E-1	8.822612E-1	8.996819E-1	8.387105E-1	8.711262E-1	8.801978E-1	9.267995E-1	8.622508E-1	8.237017E-1	9.490985E-1	9.092134E-1	8.530398E-1	8.851946E-1	8.232052E-1	8.765173E-1	8.576587E-1	9.309065E-1	8.543547E-1	8.621882E-1	8.682399E-1	8.694635E-1	8.607682E-1	8.726148E-1	8.884495E-1	9.086736E-1	8.831610E-1	8.530701E-1	8.901082E-1	8.850717E-1	9.017343E-1	8.982055E-1	8.680769E-1	8.681967E-1	9.214317E-1	8.503351E-1	8.208449E-1	8.598720E-1	8.979361E-1	8.510476E-1	8.169600E-1	8.870405E-1	8.883833E-1	8.486708E-1	8.384527E-1	8.938822E-1	9.626376E-1	8.874057E-1	9.039033E-1	8.546790E-1	8.584777E-1	8.450890E-1	8.929834E-1	8.233042E-1	9.065583E-1	8.748699E-1	8.696570E-1	8.410595E-1	8.347577E-1	8.452391E-1	8.963405E-1	8.582770E-1	8.179687E-1	8.685904E-1	8.484651E-1	8.099142E-1	8.859584E-1	8.688402E-1	8.711575E-1	8.435764E-1	9.227326E-1	8.728794E-1	8.730177E-1	8.584238E-1	8.419367E-1	8.710371E-1	8.259392E-1	9.131007E-1	8.542776E-1	9.097213E-1	8.560565E-1	8.279713E-1	8.517647E-1	8.525740E-1	8.978229E-1	8.823568E-1	9.058517E-1	8.669652E-1	8.445190E-1	8.324674E-1	8.156026E-1	8.972346E-1	9.039615E-1	8.710863E-1	8.979170E-1	8.949759E-1	9.154711E-1	8.027828E-1	8.587709E-1	8.359272E-1	9.039257E-1	8.883429E-1	9.053832E-1	8.234376E-1	9.122725E-1	8.654221E-1	8.761570E-1	8.946202E-1	9.083241E-1	8.916727E-1	8.373294E-1	8.393810E-1	8.744036E-1	8.957401E-1	8.756012E-1	9.060588E-1	8.469040E-1	8.756470E-1	9.349118E-1	8.576481E-1	8.745284E-1	8.445449E-1	8.447219E-1	9.101562E-1	8.932643E-1	9.150035E-1	8.855685E-1	9.317149E-1	8.395903E-1	8.959800E-1	8.478937E-1	9.216581E-1	8.471662E-1	9.496351E-1	8.974985E-1	8.740881E-1	8.857804E-1
2.872140E+2	7.217089E-1	7.642437E-1	7.109934E-1	7.129717E-1	7.380773E-1	7.317967E-1	7.244625E-1	7.269569E-1	7.432730E-1	7.860231E-1	7.367706E-1	7.130757E-1	7.040451E-1	7.585682E-1	7.050208E-1	7.290999E-1	7.129591E-1	7.350464E-1	7.506461E-1	7.225964E-1	7.239567E-1	7.123684E-1	7.406710E-1	7.442654E-1	7.463106E-1	7.402800E-1	7.144408E-1	7.263202E-1	7.042591E-1	7.457345E-1	7.891270E-1	7.674520E-1	7.743973E-1	7.028401E-1	6.834806E-1	6.949292E-1	7.306446E-1	7.597793E-1	7.057191E-1	7.033103E-1	7.289402E-1	7.349821E-1	7.297795E-1	6.768604E-1	7.025664E-1	7.298321E-1	7.333913E-1	7.542320E-1	7.706875E-1	7.221372E-1	7.354905E-1	6.791638E-1	7.060988E-1	7.026667E-1	7.203591E-1	6.983080E-1	7.498850E-1	7.309396E-1	7.072893E-1	7.290927E-1	7.319676E-1	7.271864E-1	7.128110E-1	6.978237E-1	7.681571E-1	7.032034E-1	7.020256E-1	7.131695E-1	7.187676E-1	7.394142E-1	7.047555E-1	7.405982E-1	7.136303E-1	7.447194E-1	7.048178E-1	7.086976E-1	7.293076E-1	7.518075E-1	7.371581E-1	7.090489E-1	7.333537E-1	7.772388E-1	7.118692E-1	7.160789E-1	7.103702E-1	7.241386E-1	7.059136E-1	7.109563E-1	6.985796E-1	6.916219E-1	7.279824E-1	7.087268E-1	6.927176E-1	6.895770E-1	7.314759E-1	7.220798E-1	7.233910E-1	6.933614E-1	7.011987E-1	7.272463E-1	7.234184E-1	7.228638E-1	7.193473E-1	7.404599E-1	7.561366E-1	7.669227E-1	6.971721E-1	7.153075E-1	7.149045E-1	7.198826E-1	7.502839E-1	7.084654E-1	7.495343E-1	7.211990E-1	6.869683E-1	6.927487E-1	6.990035E-1	7.369082E-1	7.051732E-1	7.265708E-1	7.640892E-1	7.443040E-1	7.508485E-1	7.247174E-1	6.781995E-1	7.373197E-1	7.310530E-1	7.121214E-1	7.267114E-1	7.468868E-1	7.094899E-1	6.875892E-1	7.171904E-1	7.633882E-1	7.181802E-1	7.368855E-1	7.613426E-1	7.052521E-1	7.136300E-1	7.393251E-1	6.932918E-1	7.273679E-1	7.175685E-1	7.512122E-1	7.625422E-1	6.741337E-1	7.134459E-1	7.640737E-1	7.572910E-1	7.004408E-1	6.928850E-1	7.235003E-1	7.434119E-1	6.535286E-1	6.840676E-1	7.300308E-1	7.241517E-1	7.268833E-1	7.062224E-1	7.291686E-1	7.294483E-1	7.382962E-1	7.544540E-1	6.990426E-1	7.384428E-1	7.722136E-1	6.778382E-1	7.645415E-1	7.040744E-1	6.915210E-1	7.523524E-1
2.874030E+2	6.256637E-1	6.596972E-1	6.982785E-1	6.636199E-1	6.269876E-1	6.512021E-1	6.392292E-1	6.501439E-1	6.449673E-1	6.358043E-1	6.612351E-1	6.716296E-1	6.545021E-1	6.826226E-1	6.765045E-1	6.535133E-1	6.878799E-1	6.615000E-1	6.808503E-1	6.675672E-1	6.271085E-1	6.321753E-1	6.525737E-1	6.737224E-1	7.140229E-1	6.826922E-1	6.555986E-1	6.699801E-1	6.724901E-1	6.589680E-1	6.586465E-1	6.459192E-1	6.166516E-1	6.476003E-1	6.732764E-1	6.791076E-1	6.478043E-1	6.862443E-1	6.197857E-1	6.315622E-1	6.412350E-1	6.887464E-1	6.823290E-1	7.033890E-1	6.568220E-1	6.442981E-1	6.515726E-1	6.745728E-1	6.710999E-1	6.577574E-1	6.324339E-1	6.639911E-1	6.718338E-1	6.240635E-1	6.623133E-1	6.823506E-1	6.506909E-1	6.855036E-1	6.731875E-1	6.898445E-1	6.758013E-1	6.930959E-1	6.561187E-1	6.525128E-1	6.622396E-1	6.680088E-1	6.658808E-1	7.301276E-1	6.806788E-1	7.057923E-1	6.413120E-1	6.276520E-1	6.556937E-1	6.975206E-1	6.948657E-1	6.656376E-1	6.359275E-1	6.423616E-1	6.340306E-1	6.590166E-1	6.829566E-1	6.470531E-1	6.369344E-1	7.113429E-1	7.130180E-1	6.961038E-1	6.504290E-1	6.625990E-1	6.360433E-1	6.236626E-1	6.350378E-1	6.627443E-1	6.710044E-1	6.860337E-1	6.835943E-1	6.676149E-1	6.715114E-1	6.567050E-1	6.773922E-1	6.609029E-1	6.666394E-1	6.579401E-1	6.648905E-1	6.382877E-1	6.854261E-1	6.803314E-1	6.225171E-1	6.797561E-1	6.404109E-1	6.711210E-1	6.478198E-1	6.402545E-1	6.624545E-1	6.877294E-1	6.176237E-1	6.756327E-1	6.708970E-1	6.713075E-1	6.425095E-1	6.463313E-1	6.962584E-1	6.969108E-1	6.416768E-1	6.668224E-1	6.190478E-1	6.435647E-1	6.295999E-1	6.750018E-1	6.669799E-1	6.843719E-1	6.698291E-1	6.769381E-1	6.591974E-1	6.752139E-1	6.423837E-1	6.945274E-1	6.593768E-1	6.277501E-1	6.742114E-1	6.823886E-1	6.411576E-1	6.327746E-1	6.925730E-1	7.078182E-1	6.417299E-1	6.865862E-1	6.925437E-1	6.550054E-1	6.649144E-1	6.886621E-1	6.390067E-1	7.153244E-1	6.383781E-1	6.664956E-1	6.957384E-1	7.009751E-1	6.376984E-1	6.743144E-1	6.867348E-1	6.816237E-1	6.699162E-1	6.523121E-1	6.467391E-1	6.724316E-1	6.812643E-1	6.914913E-1	6.609171E-1	6.772912E-1	6.732902E-1	7.172970E-1	6.479870E-1
2.876090E+2	5.292725E-1	4.907143E-1	5.162927E-1	5.605183E-1	5.131588E-1	5.186617E-1	4.955771E-1	5.597148E-1	5.293878E-1	4.909286E-1	4.988481E-1	5.135926E-1	5.278887E-1	5.024287E-1	5.293523E-1	5.206401E-1	4.707226E-1	5.121888E-1	5.187889E-1	5.019344E-1	4.845072E-1	5.341186E-1	5.076385E-1	4.916636E-1	5.041711E-1	5.397556E-1	5.182941E-1	4.820488E-1	5.191842E-1	4.966126E-1	5.636660E-1	5.268704E-1	5.326605E-1	5.307182E-1	5.125770E-1	5.173030E-1	5.236976E-1	5.173416E-1	4.995777E-1	4.987944E-1	5.186075E-1	5.083130E-1	5.087146E-1	4.842291E-1	4.887459E-1	4.667230E-1	5.021969E-1	4.919954E-1	4.732317E-1	5.168714E-1	4.818488E-1	5.195016E-1	5.152493E-1	5.057339E-1	5.151872E-1	4.851462E-1	4.965890E-1	5.171196E-1	5.163067E-1	5.144017E-1	4.938212E-1	4.867539E-1	5.053107E-1	5.346149E-1	4.953134E-1	5.147209E-1	4.802649E-1	5.227134E-1	5.016413E-1	5.182576E-1	5.234090E-1	4.867661E-1	5.296477E-1	4.682883E-1	4.851390E-1	5.318802E-1	5.065422E-1	4.684018E-1	5.218578E-1	5.224841E-1	4.781066E-1	4.909482E-1	4.808915E-1	4.778183E-1	5.523182E-1	4.749173E-1	5.116152E-1	5.172674E-1	5.045863E-1	4.875631E-1	5.005972E-1	4.570936E-1	5.107386E-1	5.081577E-1	5.170046E-1	5.384905E-1	5.116398E-1	5.265324E-1	5.022791E-1	5.247343E-1	5.255975E-1	5.181829E-1	5.225819E-1	4.838117E-1	4.930548E-1	4.864908E-1	5.342364E-1	4.734479E-1	5.398285E-1	5.254056E-1	4.771377E-1	5.048460E-1	5.053099E-1	5.138684E-1	5.140391E-1	5.201307E-1	5.159904E-1	5.393055E-1	4.972906E-1	4.861175E-1	5.259601E-1	5.462125E-1	4.864759E-1	5.190029E-1	4.854612E-1	5.362184E-1	4.979798E-1	4.850982E-1	5.226492E-1	5.290541E-1	5.073895E-1	5.190621E-1	5.288819E-1	4.822245E-1	5.259124E-1	5.193226E-1	5.037376E-1	5.137820E-1	4.901095E-1	4.974089E-1	5.284350E-1	5.047944E-1	5.280231E-1	5.299825E-1	5.029020E-1	4.924975E-1	4.825061E-1	5.519366E-1	4.855130E-1	5.216711E-1	5.136934E-1	5.374654E-1	4.994357E-1	5.183330E-1	4.859647E-1	5.282242E-1	5.170360E-1	5.107287E-1	5.125260E-1	5.060244E-1	5.290022E-1	5.275256E-1	4.980777E-1	5.022094E-1	5.238144E-1	4.789807E-1	4.963615E-1	5.563058E-1	5.330176E-1	5.892035E-1	5.731365E-1
2.878030E+2	3.856970E-1	3.652347E-1	3.791024E-1	3.785573E-1	3.932230E-1	3.922424E-1	3.491421E-1	3.922886E-1	3.638694E-1	3.636432E-1	3.940038E-1	3.443917E-1	3.534625E-1	4.356131E-1	3.644578E-1	3.755122E-1	4.033040E-1	3.835348E-1	3.818312E-1	3.614651E-1	3.683166E-1	3.908664E-1	3.626580E-1	3.556241E-1	3.542595E-1	4.065291E-1	3.481045E-1	3.210568E-1	3.871486E-1	3.442214E-1	3.670799E-1	3.785249E-1	3.807903E-1	3.691703E-1	3.658687E-1	3.810351E-1	3.838343E-1	3.911526E-1	3.697592E-1	3.841561E-1	4.100025E-1	4.205253E-1	3.987684E-1	3.672850E-1	3.459983E-1	3.678818E-1	3.738228E-1	3.854945E-1	3.589274E-1	3.511591E-1	4.116259E-1	3.682468E-1	3.820825E-1	3.610344E-1	3.884370E-1	3.630474E-1	3.686446E-1	3.849066E-1	3.807530E-1	4.009989E-1	3.817534E-1	3.730132E-1	3.880204E-1	3.254098E-1	3.754885E-1	3.877453E-1	3.849772E-1	4.004034E-1	3.746023E-1	3.981872E-1	3.731335E-1	3.798797E-1	3.665988E-1	3.594954E-1	3.558518E-1	3.448295E-1	4.114340E-1	3.918165E-1	3.837313E-1	3.697269E-1	3.649633E-1	3.463544E-1	3.879627E-1	3.822647E-1	3.773312E-1	3.893553E-1	3.701368E-1	3.815142E-1	3.865678E-1	3.808243E-1	3.621344E-1	3.795315E-1	3.897886E-1	3.652702E-1	3.750583E-1	3.992064E-1	4.132890E-1	3.648237E-1	3.402980E-1	3.397755E-1	3.788604E-1	4.082224E-1	4.090352E-1	3.921611E-1	4.014624E-1	3.898018E-1	4.034887E-1	3.856992E-1	3.728643E-1	4.070845E-1	3.708335E-1	4.122734E-1	3.743961E-1	3.900759E-1	3.699792E-1	3.788121E-1	3.564046E-1	3.852758E-1	3.730066E-1	4.257545E-1	4.124196E-1	3.858496E-1	4.103523E-1	4.000130E-1	4.013580E-1	3.746547E-1	3.801939E-1	3.885246E-1	3.564554E-1	3.737474E-1	3.669161E-1	3.764168E-1	3.749762E-1	3.854285E-1	3.723391E-1	3.731968E-1	3.938149E-1	4.127579E-1	3.793809E-1	3.584121E-1	3.619713E-1	3.853471E-1	3.792898E-1	3.858411E-1	3.880046E-1	3.442284E-1	4.125368E-1	3.859752E-1	3.923686E-1	3.854397E-1	3.743017E-1	3.702796E-1	3.733558E-1	3.784798E-1	3.873459E-1	3.871761E-1	3.761389E-1	3.880578E-1	3.943386E-1	3.672299E-1	3.808183E-1	3.551289E-1	3.777061E-1	3.869803E-1	3.752665E-1	3.976538E-1	3.803746E-1	3.883834E-1	3.724228E-1	4.250903E-1	3.910940E-1
2.880040E+2	3.730637E-1	3.597218E-1	3.749657E-1	3.361785E-1	3.743672E-1	3.587434E-1	3.545989E-1	3.958964E-1	3.710680E-1	3.749529E-1	3.410552E-1	3.800022E-1	3.575224E-1	3.572501E-1	3.712277E-1	3.401376E-1	3.721892E-1	3.447135E-1	3.474503E-1	3.487595E-1	3.552594E-1	3.601860E-1	3.715719E-1	3.368218E-1	3.547073E-1	3.430381E-1	3.622446E-1	3.486212E-1	3.583787E-1	3.749372E-1	3.628919E-1	3.490712E-1	3.709147E-1	3.552642E-1	3.687249E-1	3.640227E-1	3.432071E-1	3.552673E-1	3.531039E-1	3.853913E-1	3.645460E-1	3.399808E-1	3.301847E-1	3.789769E-1	3.778526E-1	3.397376E-1	3.557511E-1	3.496381E-1	4.014464E-1	3.596214E-1	3.527125E-1	3.590736E-1	3.788739E-1	3.695190E-1	3.555145E-1	3.789282E-1	3.511254E-1	3.497065E-1	3.443868E-1	3.713690E-1	3.678918E-1	3.371492E-1	3.494093E-1	3.659216E-1	3.594103E-1	3.710201E-1	3.578914E-1	3.416673E-1	3.496417E-1	3.573689E-1	3.804110E-1	3.864856E-1	3.572022E-1	3.139582E-1	3.270486E-1	3.749742E-1	3.830409E-1	3.357659E-1	3.408750E-1	3.735841E-1	3.714107E-1	3.814079E-1	3.651704E-1	3.256220E-1	3.713127E-1	3.704616E-1	3.608327E-1	3.644788E-1	3.606027E-1	3.606615E-1	3.814337E-1	3.512906E-1	3.715712E-1	3.537127E-1	3.469550E-1	3.576628E-1	3.774050E-1	3.852657E-1	3.525364E-1	3.414893E-1	3.582936E-1	3.782143E-1	3.478968E-1	3.599439E-1	3.380639E-1	3.289988E-1	3.548475E-1	3.669578E-1	3.679707E-1	3.587274E-1	3.640120E-1	3.867977E-1	4.023561E-1	3.716298E-1	3.730301E-1	3.584928E-1	3.830240E-1	3.575009E-1	3.379973E-1	3.427013E-1	3.517100E-1	3.503069E-1	3.557908E-1	3.588599E-1	3.657259E-1	3.848670E-1	3.444047E-1	3.310888E-1	3.474947E-1	3.399175E-1	3.490797E-1	3.676076E-1	3.605398E-1	3.589530E-1	3.556083E-1	3.517764E-1	3.708105E-1	3.638294E-1	3.653607E-1	3.802950E-1	3.825829E-1	3.703753E-1	3.735364E-1	3.696323E-1	3.560923E-1	3.729415E-1	3.756470E-1	3.684597E-1	3.523794E-1	3.698391E-1	3.692835E-1	3.400605E-1	3.742924E-1	3.819287E-1	3.795556E-1	3.762153E-1	3.739298E-1	3.566113E-1	3.662603E-1	3.624936E-1	3.887809E-1	3.488726E-1	3.504228E-1	4.147311E-1	3.870635E-1	4.003723E-1	3.430985E-1	3.928546E-1	4.003959E-1	3.897523E-1	3.789870E-1
2.882240E+2	4.883681E-1	5.130207E-1	5.206926E-1	5.403487E-1	5.270484E-1	5.187334E-1	4.859676E-1	5.021503E-1	4.913928E-1	5.107843E-1	4.815419E-1	5.199680E-1	5.242985E-1	5.247633E-1	4.886296E-1	5.108984E-1	5.041868E-1	5.335483E-1	4.933173E-1	5.122868E-1	5.133660E-1	4.994661E-1	4.916712E-1	4.778452E-1	4.994366E-1	5.461404E-1	5.036290E-1	5.045561E-1	5.306200E-1	4.820149E-1	5.073713E-1	4.983941E-1	5.166271E-1	4.865815E-1	5.017795E-1	4.869195E-1	5.166084E-1	4.878306E-1	5.091876E-1	4.870700E-1	4.729248E-1	5.214784E-1	5.072249E-1	4.874854E-1	4.800299E-1	4.873084E-1	5.040468E-1	5.016757E-1	4.733755E-1	5.352739E-1	5.319994E-1	5.026032E-1	5.032922E-1	5.169563E-1	5.283055E-1	4.743530E-1	5.344940E-1	4.800364E-1	4.823858E-1	5.076294E-1	4.807177E-1	5.133608E-1	4.958604E-1	4.670647E-1	5.158227E-1	4.618643E-1	5.102358E-1	5.198987E-1	5.065617E-1	5.323495E-1	5.218140E-1	4.982488E-1	4.920342E-1	4.579256E-1	4.743023E-1	4.975793E-1	5.218789E-1	5.027591E-1	4.827458E-1	5.216749E-1	4.982060E-1	5.296072E-1	4.785299E-1	5.406609E-1	4.823967E-1	4.767583E-1	4.844359E-1	5.189636E-1	4.914189E-1	4.859166E-1	5.045236E-1	5.425060E-1	5.049972E-1	5.312719E-1	4.956997E-1	5.173629E-1	4.562769E-1	4.970318E-1	4.791985E-1	4.972172E-1	5.355315E-1	4.857248E-1	4.944515E-1	4.732859E-1	5.146730E-1	4.599366E-1	4.890565E-1	4.995681E-1	4.597447E-1	5.178849E-1	4.940385E-1	4.874375E-1	4.893859E-1	5.269022E-1	4.719047E-1	5.244806E-1	5.212166E-1	5.358689E-1	4.992937E-1	5.140058E-1	5.239134E-1	5.019755E-1	5.240215E-1	5.113183E-1	4.925123E-1	5.198382E-1	5.263648E-1	5.010532E-1	5.016789E-1	4.795587E-1	4.972896E-1	5.539860E-1	5.075639E-1	5.093157E-1	4.960494E-1	5.076509E-1	5.362109E-1	4.858308E-1	4.592737E-1	5.366391E-1	5.216480E-1	4.803402E-1	5.325974E-1	4.942095E-1	5.158405E-1	4.636626E-1	4.984701E-1	5.206894E-1	4.948637E-1	5.430804E-1	4.852549E-1	4.626798E-1	4.845686E-1	5.056869E-1	4.653625E-1	5.123005E-1	5.156551E-1	4.911251E-1	5.489857E-1	5.235804E-1	5.282468E-1	4.846162E-1	4.988166E-1	5.470260E-1	5.419991E-1	4.746868E-1	5.131781E-1	5.192393E-1	4.934063E-1	5.044213E-1	5.173613E-1
2.884130E+2	6.737742E-1	6.834276E-1	6.756136E-1	6.966948E-1	6.988026E-1	6.599188E-1	6.532335E-1	7.423222E-1	6.783855E-1	7.036072E-1	6.500603E-1	7.103147E-1	6.972515E-1	6.655656E-1	7.062257E-1	6.734540E-1	6.920062E-1	6.845131E-1	6.895034E-1	6.600746E-1	6.861193E-1	7.115146E-1	6.523154E-1	6.866173E-1	7.248599E-1	6.326361E-1	6.938271E-1	6.598170E-1	7.316632E-1	6.852318E-1	6.917150E-1	7.319714E-1	7.293644E-1	7.039854E-1	7.014040E-1	7.040432E-1	6.944146E-1	6.764998E-1	6.835925E-1	6.726009E-1	6.857421E-1	6.537071E-1	6.873887E-1	6.567590E-1	7.181742E-1	6.816696E-1	6.979489E-1	7.084569E-1	6.538626E-1	6.645921E-1	6.562409E-1	6.513655E-1	6.614598E-1	6.571943E-1	7.095360E-1	6.730276E-1	6.734498E-1	7.083141E-1	6.968975E-1	6.703592E-1	6.387179E-1	6.918194E-1	6.898409E-1	6.974182E-1	6.810689E-1	6.884491E-1	6.507303E-1	7.194856E-1	7.089782E-1	6.719672E-1	6.957977E-1	6.865259E-1	7.224312E-1	6.249865E-1	6.858437E-1	6.917502E-1	6.773606E-1	6.669225E-1	6.784134E-1	6.920853E-1	7.149418E-1	6.998631E-1	6.682260E-1	7.435447E-1	7.010266E-1	6.663341E-1	6.705256E-1	6.710669E-1	7.072976E-1	7.046958E-1	6.982827E-1	6.876426E-1	6.965854E-1	6.852552E-1	6.937623E-1	6.977107E-1	6.706516E-1	6.722461E-1	7.028128E-1	6.631021E-1	7.200591E-1	6.712480E-1	6.937610E-1	6.579700E-1	6.728676E-1	6.950312E-1	6.436943E-1	6.864695E-1	6.948976E-1	6.627760E-1	6.733083E-1	6.903547E-1	6.650510E-1	6.573898E-1	6.926226E-1	6.615979E-1	6.652988E-1	6.429096E-1	6.588413E-1	6.949342E-1	7.248176E-1	6.543946E-1	6.851506E-1	7.076818E-1	6.562815E-1	6.727306E-1	6.666810E-1	6.853361E-1	6.820092E-1	6.728939E-1	6.746677E-1	7.106955E-1	7.261693E-1	6.984229E-1	7.048525E-1	6.820522E-1	7.230934E-1	6.896454E-1	6.530044E-1	7.134334E-1	6.619600E-1	7.024054E-1	6.969244E-1	6.804079E-1	6.916957E-1	6.583357E-1	6.623071E-1	7.014134E-1	6.912832E-1	6.967936E-1	6.451210E-1	6.977290E-1	7.339748E-1	6.653508E-1	6.975915E-1	7.621015E-1	6.909768E-1	7.060976E-1	7.155067E-1	6.899308E-1	7.210333E-1	7.140414E-1	6.952851E-1	7.454145E-1	6.915058E-1	7.144625E-1	6.630304E-1	7.079653E-1	6.581219E-1	7.376323E-1	6.127704E-1
2.886030E+2	8.219344E-1	8.326649E-1	8.150703E-1	8.003362E-1	8.345546E-1	8.320400E-1	7.972486E-1	8.065069E-1	8.522431E-1	7.958549E-1	8.588598E-1	7.908575E-1	8.202034E-1	8.023603E-1	8.253411E-1	7.644178E-1	8.572594E-1	8.531040E-1	8.016367E-1	8.035207E-1	7.761837E-1	7.888107E-1	7.667085E-1	8.117033E-1	7.549544E-1	8.154920E-1	7.994487E-1	8.272991E-1	8.416285E-1	8.256151E-1	8.459650E-1	7.746079E-1	8.086250E-1	8.265341E-1	8.075623E-1	7.950436E-1	8.355590E-1	7.939718E-1	7.818295E-1	8.102295E-1	8.397462E-1	8.178831E-1	7.704828E-1	7.933077E-1	8.296663E-1	8.108807E-1	8.161112E-1	7.997342E-1	8.074600E-1	8.174047E-1	8.533901E-1	8.036630E-1	8.566207E-1	7.788265E-1	7.849367E-1	7.841525E-1	8.169123E-1	7.881073E-1	8.201208E-1	7.908919E-1	7.534351E-1	7.681799E-1	8.196015E-1	8.281603E-1	7.926008E-1	8.066765E-1	7.844417E-1	8.060267E-1	8.112355E-1	8.391901E-1	8.509697E-1	7.865949E-1	8.013527E-1	7.653158E-1	7.857514E-1	8.154166E-1	8.344251E-1	7.792104E-1	8.323389E-1	8.140267E-1	8.151635E-1	7.938304E-1	7.991780E-1	8.053304E-1	8.489512E-1	7.406453E-1	8.309047E-1	8.287041E-1	8.672291E-1	8.506085E-1	7.907324E-1	8.182012E-1	7.961328E-1	8.302551E-1	8.238838E-1	8.263813E-1	8.121915E-1	7.460294E-1	7.828367E-1	7.528695E-1	7.577338E-1	8.214511E-1	7.904727E-1	7.711242E-1	7.984023E-1	8.079853E-1	8.525592E-1	8.172797E-1	8.136887E-1	8.101823E-1	7.689671E-1	8.186885E-1	8.296183E-1	8.228682E-1	7.508157E-1	7.965717E-1	8.242611E-1	8.183570E-1	7.786754E-1	7.834390E-1	8.721636E-1	8.034369E-1	8.007038E-1	8.053461E-1	7.878151E-1	8.427854E-1	8.039024E-1	8.235443E-1	7.940139E-1	8.398177E-1	8.188760E-1	8.002769E-1	8.204466E-1	8.715905E-1	7.686393E-1	8.148501E-1	8.345422E-1	7.963945E-1	7.796200E-1	8.153481E-1	8.389971E-1	7.967226E-1	7.398419E-1	8.009722E-1	8.184145E-1	7.919539E-1	8.299705E-1	8.114028E-1	8.433731E-1	8.252884E-1	7.710621E-1	7.927985E-1	8.311175E-1	8.153837E-1	8.227967E-1	8.258674E-1	7.919429E-1	8.095581E-1	8.177772E-1	8.568557E-1	8.289274E-1	7.790369E-1	7.848658E-1	8.225587E-1	8.256606E-1	8.385477E-1	7.999879E-1	8.858326E-1	7.610362E-1	8.084109E-1	1.012201E+0
2.888170E+2	7.776570E-1	8.190347E-1	8.185966E-1	8.082501E-1	8.105907E-1	8.058517E-1	7.490788E-1	7.551623E-1	7.405233E-1	8.063643E-1	8.082281E-1	7.562108E-1	8.191114E-1	8.124400E-1	7.448631E-1	8.261990E-1	7.765933E-1	8.109373E-1	7.790638E-1	7.743097E-1	8.170885E-1	7.868522E-1	7.921430E-1	8.034045E-1	7.936923E-1	7.961594E-1	8.034713E-1	7.825955E-1	7.948785E-1	7.607768E-1	8.342716E-1	8.161999E-1	8.510288E-1	8.330405E-1	8.067490E-1	8.273005E-1	8.122379E-1	8.188566E-1	7.767677E-1	8.066031E-1	7.600564E-1	7.831573E-1	7.477315E-1	7.858508E-1	8.219097E-1	7.895240E-1	7.636200E-1	7.897758E-1	8.101767E-1	7.843354E-1	8.203756E-1	7.906802E-1	8.072613E-1	7.962982E-1	7.641132E-1	8.037565E-1	8.135050E-1	7.908646E-1	7.998240E-1	8.149370E-1	7.645539E-1	7.955826E-1	8.078809E-1	8.064093E-1	7.890693E-1	7.788956E-1	8.247800E-1	8.177824E-1	8.119972E-1	8.091717E-1	7.977517E-1	7.779689E-1	8.083235E-1	7.433948E-1	7.294274E-1	7.568853E-1	8.159915E-1	8.039864E-1	7.810023E-1	8.109025E-1	8.338770E-1	7.556714E-1	7.636533E-1	8.029823E-1	7.440439E-1	8.017274E-1	7.509148E-1	7.637125E-1	7.631702E-1	8.180720E-1	7.534022E-1	7.818921E-1	8.096525E-1	7.923781E-1	8.125530E-1	7.639099E-1	7.625390E-1	7.444481E-1	7.942941E-1	7.383400E-1	7.898420E-1	8.100493E-1	7.509430E-1	8.176268E-1	8.233524E-1	7.905870E-1	7.963212E-1	8.148965E-1	7.503726E-1	7.443159E-1	8.227257E-1	7.718364E-1	8.441742E-1	7.969576E-1	7.874320E-1	7.698095E-1	8.220050E-1	8.350672E-1	7.681749E-1	7.560546E-1	8.438648E-1	8.109166E-1	7.770750E-1	8.094798E-1	7.786242E-1	7.581330E-1	7.594043E-1	7.456868E-1	7.662311E-1	7.756542E-1	8.015041E-1	7.918737E-1	8.140847E-1	7.610202E-1	7.626639E-1	7.732971E-1	8.207566E-1	7.902445E-1	8.428280E-1	7.895604E-1	8.120948E-1	7.923198E-1	7.959329E-1	7.499075E-1	8.050105E-1	7.864528E-1	7.550565E-1	7.970086E-1	8.107168E-1	8.310814E-1	7.988830E-1	7.860158E-1	7.615304E-1	7.459627E-1	7.932430E-1	7.830325E-1	7.846469E-1	7.501027E-1	8.241462E-1	8.228028E-1	7.433962E-1	8.327823E-1	8.187481E-1	7.983230E-1	8.050225E-1	8.002146E-1	7.870090E-1	8.171232E-1	7.743523E-1	8.317592E-1	7.987374E-1
2.890200E+2	7.643946E-1	7.834185E-1	8.076552E-1	7.751225E-1	8.351923E-1	8.337100E-1	7.954014E-1	8.039511E-1	7.738497E-1	8.240053E-1	7.530673E-1	7.349797E-1	7.776745E-1	7.888561E-1	8.162627E-1	8.020235E-1	8.171231E-1	8.197200E-1	7.682062E-1	7.856785E-1	8.010488E-1	7.751226E-1	7.878114E-1	8.010173E-1	7.850976E-1	8.183854E-1	8.183234E-1	8.183196E-1	8.384770E-1	7.700333E-1	8.078445E-1	7.652325E-1	8.351017E-1	7.874180E-1	8.145849E-1	7.639671E-1	7.934272E-1	8.392018E-1	7.729983E-1	8.022843E-1	7.865522E-1	7.973829E-1	7.838943E-1	7.980712E-1	7.998635E-1	8.414131E-1	7.930331E-1	8.081340E-1	8.243997E-1	7.669130E-1	8.044803E-1	7.286460E-1	7.809746E-1	7.696848E-1	7.577717E-1	8.031954E-1	7.724227E-1	8.001111E-1	8.273313E-1	8.002655E-1	8.570370E-1	7.998305E-1	7.746490E-1	8.036857E-1	7.700582E-1	7.737601E-1	8.017762E-1	7.910796E-1	8.191979E-1	7.971789E-1	7.777252E-1	7.600182E-1	7.863652E-1	7.322614E-1	7.483278E-1	7.650122E-1	8.267348E-1	8.030124E-1	7.624728E-1	7.839594E-1	7.765281E-1	8.421363E-1	7.708422E-1	8.102740E-1	7.605082E-1	7.619664E-1	7.654801E-1	7.671348E-1	8.199115E-1	7.956521E-1	7.951493E-1	8.066059E-1	7.966003E-1	7.946277E-1	7.694478E-1	8.145799E-1	7.709608E-1	7.843268E-1	7.763881E-1	7.991499E-1	7.874783E-1	7.944323E-1	7.790054E-1	7.818489E-1	8.419711E-1	7.427235E-1	8.160022E-1	7.672804E-1	7.477861E-1	8.117557E-1	8.125133E-1	7.888866E-1	7.974596E-1	8.091458E-1	8.138021E-1	7.388614E-1	7.754612E-1	8.038011E-1	7.691585E-1	7.540316E-1	7.785251E-1	7.711951E-1	7.993427E-1	8.028711E-1	7.866155E-1	7.845313E-1	7.623080E-1	8.298425E-1	7.787212E-1	8.583348E-1	8.187787E-1	8.063282E-1	7.845182E-1	8.102929E-1	8.142800E-1	7.615096E-1	8.173157E-1	7.744575E-1	7.809656E-1	7.904186E-1	8.095804E-1	7.530106E-1	8.123601E-1	7.797905E-1	7.885542E-1	7.765526E-1	8.216001E-1	7.213169E-1	8.007482E-1	8.342768E-1	7.718510E-1	8.016526E-1	7.905587E-1	7.842178E-1	8.264724E-1	7.879168E-1	7.862676E-1	7.494046E-1	8.089543E-1	8.155478E-1	7.949023E-1	7.765711E-1	7.755749E-1	7.844185E-1	7.855242E-1	8.491494E-1	7.921555E-1	8.357362E-1	7.405479E-1	7.686594E-1	8.550972E-1
2.892040E+2	7.322787E-1	7.097503E-1	7.793599E-1	7.087403E-1	7.097854E-1	7.332839E-1	7.408795E-1	7.273056E-1	7.281419E-1	7.255133E-1	7.122553E-1	7.046635E-1	7.177600E-1	7.255770E-1	7.096219E-1	7.081720E-1	7.574200E-1	7.216891E-1	7.296882E-1	7.382528E-1	7.242679E-1	6.944731E-1	7.131073E-1	7.257985E-1	7.332607E-1	7.564925E-1	6.852621E-1	7.041049E-1	7.184109E-1	6.652048E-1	7.325708E-1	7.408452E-1	7.449742E-1	7.112146E-1	7.486618E-1	7.184721E-1	7.387480E-1	7.450349E-1	7.417653E-1	6.666806E-1	7.129679E-1	7.232462E-1	7.375986E-1	7.213982E-1	7.425002E-1	7.117030E-1	7.165360E-1	7.121938E-1	7.206327E-1	7.292078E-1	7.680920E-1	7.340183E-1	7.162609E-1	7.085628E-1	7.037278E-1	7.206289E-1	7.278756E-1	7.248725E-1	7.257532E-1	7.581163E-1	7.594988E-1	7.183199E-1	7.317364E-1	7.279962E-1	7.445984E-1	7.141414E-1	7.455498E-1	7.291794E-1	7.117917E-1	7.097055E-1	7.205741E-1	7.632315E-1	7.676253E-1	7.302462E-1	6.831918E-1	7.250756E-1	7.698619E-1	7.571489E-1	6.944288E-1	7.190545E-1	7.013349E-1	7.387587E-1	7.135828E-1	7.359961E-1	7.090832E-1	7.210731E-1	7.385352E-1	7.118359E-1	7.390298E-1	7.215731E-1	7.147341E-1	7.264887E-1	7.074568E-1	7.438823E-1	7.568843E-1	7.283122E-1	6.953639E-1	6.944967E-1	7.188234E-1	7.235498E-1	7.575998E-1	7.070475E-1	7.228059E-1	7.091538E-1	7.188809E-1	7.239669E-1	7.146534E-1	7.658057E-1	7.112668E-1	7.693360E-1	7.152208E-1	7.320262E-1	7.251414E-1	7.290637E-1	7.164625E-1	6.886637E-1	7.619528E-1	7.205472E-1	7.142323E-1	7.041135E-1	7.344063E-1	7.179215E-1	7.025409E-1	7.574511E-1	6.811926E-1	7.494478E-1	7.391272E-1	7.091403E-1	7.256653E-1	7.528766E-1	7.381717E-1	7.216998E-1	7.112199E-1	7.141701E-1	7.141296E-1	7.308961E-1	7.268354E-1	7.355846E-1	7.104061E-1	7.603921E-1	7.227007E-1	6.848858E-1	7.250752E-1	7.276799E-1	6.972509E-1	7.368549E-1	7.026240E-1	7.016633E-1	7.208463E-1	7.745750E-1	6.862882E-1	7.018804E-1	7.086542E-1	7.344698E-1	7.513513E-1	7.245309E-1	7.533630E-1	6.729677E-1	7.458720E-1	7.449217E-1	7.229687E-1	6.800844E-1	7.415046E-1	7.777781E-1	7.246551E-1	7.235980E-1	7.324639E-1	7.172878E-1	6.958067E-1	7.421539E-1	7.266748E-1
2.894080E+2	5.721830E-1	6.010484E-1	5.554624E-1	5.742803E-1	5.727831E-1	5.935290E-1	5.976435E-1	5.434420E-1	5.451515E-1	6.084521E-1	5.473941E-1	5.638626E-1	5.893212E-1	5.945213E-1	5.693015E-1	5.990821E-1	5.780331E-1	6.010381E-1	5.549090E-1	5.393171E-1	5.956890E-1	5.816714E-1	5.622362E-1	5.412032E-1	5.843178E-1	5.540602E-1	5.622642E-1	5.393160E-1	5.428800E-1	5.636276E-1	5.396865E-1	5.575533E-1	6.023232E-1	5.415622E-1	5.756913E-1	5.660225E-1	5.551259E-1	5.472299E-1	5.581721E-1	5.341079E-1	5.436281E-1	5.849979E-1	5.249039E-1	5.386051E-1	5.627143E-1	5.710569E-1	5.758439E-1	5.507358E-1	5.738683E-1	5.322067E-1	5.840327E-1	5.694054E-1	6.068353E-1	5.713486E-1	5.824877E-1	5.689155E-1	5.401227E-1	5.528614E-1	5.841472E-1	5.638056E-1	5.529538E-1	5.546456E-1	6.042852E-1	5.739548E-1	5.924817E-1	5.858570E-1	5.752882E-1	5.573031E-1	5.999248E-1	5.460883E-1	5.698376E-1	6.253289E-1	6.101745E-1	5.571153E-1	5.597616E-1	5.792725E-1	5.595123E-1	5.148946E-1	5.602897E-1	5.806336E-1	5.852883E-1	5.725323E-1	5.653582E-1	6.050829E-1	5.913932E-1	5.293297E-1	5.776545E-1	5.529199E-1	5.741207E-1	5.452568E-1	5.889108E-1	5.589807E-1	5.864879E-1	5.473808E-1	5.865465E-1	5.695273E-1	5.756773E-1	5.180391E-1	5.738348E-1	5.598914E-1	5.759545E-1	5.917961E-1	5.830519E-1	5.874739E-1	5.642830E-1	6.107115E-1	5.603316E-1	5.520993E-1	5.468603E-1	5.563973E-1	5.554840E-1	5.653740E-1	6.003098E-1	5.802665E-1	5.291920E-1	6.217375E-1	5.710332E-1	5.830170E-1	5.765295E-1	5.761100E-1	5.879187E-1	5.406159E-1	5.738488E-1	5.825717E-1	6.067395E-1	5.935815E-1	5.772092E-1	5.780151E-1	5.659387E-1	5.800044E-1	5.743456E-1	5.728186E-1	5.317252E-1	5.573705E-1	5.412219E-1	5.822325E-1	6.036151E-1	5.397491E-1	5.667022E-1	5.406065E-1	6.091910E-1	5.435092E-1	5.734672E-1	5.601504E-1	5.811391E-1	5.745499E-1	5.706410E-1	5.510009E-1	5.782747E-1	5.610320E-1	5.497523E-1	5.795032E-1	5.573339E-1	5.326544E-1	5.666522E-1	6.009203E-1	5.591809E-1	5.618604E-1	5.843254E-1	5.858179E-1	5.894005E-1	5.723409E-1	5.512940E-1	5.825299E-1	5.374829E-1	5.746352E-1	5.774502E-1	5.705273E-1	6.080503E-1	6.105629E-1	4.968184E-1
2.896090E+2	4.031428E-1	4.207328E-1	4.248048E-1	4.308711E-1	4.142774E-1	4.404957E-1	4.197644E-1	4.681776E-1	4.325713E-1	4.025833E-1	4.518330E-1	4.114039E-1	3.989638E-1	4.429953E-1	4.462098E-1	4.347606E-1	4.308322E-1	4.442251E-1	4.214274E-1	4.331044E-1	4.092573E-1	4.451007E-1	4.287437E-1	4.231712E-1	4.176710E-1	4.237400E-1	4.018043E-1	4.488175E-1	4.637690E-1	4.155645E-1	4.283029E-1	4.308799E-1	4.234894E-1	4.171185E-1	3.918416E-1	4.135729E-1	4.235039E-1	4.438455E-1	4.082624E-1	4.459063E-1	3.937671E-1	4.553300E-1	4.050529E-1	3.983166E-1	4.692512E-1	4.262386E-1	4.324630E-1	4.329296E-1	4.650130E-1	4.423123E-1	4.277213E-1	4.343712E-1	4.129670E-1	4.124511E-1	3.818713E-1	4.291398E-1	4.389171E-1	4.350656E-1	4.440079E-1	4.244635E-1	4.052957E-1	4.338747E-1	4.227598E-1	4.107867E-1	4.568182E-1	4.370760E-1	4.370712E-1	4.463216E-1	4.531616E-1	4.366832E-1	4.187973E-1	4.612556E-1	4.332055E-1	4.248362E-1	4.070851E-1	4.296110E-1	4.229594E-1	4.429487E-1	4.543924E-1	4.205647E-1	4.361466E-1	4.393346E-1	4.307855E-1	4.007653E-1	4.047274E-1	4.172099E-1	4.328082E-1	4.370957E-1	4.121734E-1	4.473723E-1	4.444178E-1	4.561447E-1	4.297058E-1	4.500285E-1	4.463116E-1	4.373035E-1	4.669970E-1	4.326393E-1	4.086301E-1	4.236031E-1	4.158667E-1	4.286845E-1	4.613571E-1	4.390158E-1	4.584838E-1	4.672400E-1	4.086658E-1	4.286743E-1	4.010244E-1	4.191712E-1	4.292036E-1	4.296223E-1	4.273403E-1	4.100565E-1	4.356043E-1	4.511707E-1	4.328418E-1	4.071856E-1	4.068534E-1	4.091181E-1	4.613717E-1	4.169980E-1	4.536956E-1	4.566298E-1	3.919980E-1	4.272279E-1	4.422874E-1	4.096050E-1	4.437160E-1	4.559972E-1	4.483281E-1	4.177185E-1	4.190963E-1	4.415800E-1	4.234706E-1	4.347581E-1	4.447166E-1	4.034749E-1	4.423840E-1	4.319788E-1	4.532321E-1	3.995976E-1	4.586144E-1	4.692116E-1	4.370485E-1	4.442347E-1	4.432071E-1	4.221277E-1	4.273756E-1	4.318236E-1	4.258474E-1	4.059251E-1	4.637555E-1	4.248296E-1	4.930392E-1	4.336081E-1	4.684426E-1	4.547659E-1	4.448076E-1	4.628631E-1	4.395871E-1	4.285429E-1	4.358735E-1	4.272445E-1	4.240952E-1	4.307256E-1	4.200499E-1	4.496697E-1	4.514361E-1	4.366797E-1	3.714053E-1
2.898020E+2	4.313853E-1	4.832661E-1	4.844642E-1	4.561342E-1	4.589290E-1	4.936232E-1	4.720074E-1	4.622509E-1	4.678967E-1	4.783611E-1	4.724278E-1	5.014659E-1	4.436049E-1	4.785193E-1	4.723535E-1	4.541088E-1	4.718623E-1	4.152700E-1	4.269236E-1	4.506513E-1	4.468036E-1	4.881687E-1	4.653301E-1	4.655358E-1	4.458601E-1	4.749499E-1	4.696509E-1	4.284580E-1	4.618006E-1	4.428293E-1	4.434556E-1	4.614414E-1	4.737671E-1	4.465256E-1	4.415163E-1	4.520290E-1	4.413985E-1	4.843662E-1	4.407605E-1	4.378258E-1	4.178826E-1	4.581481E-1	4.439726E-1	4.339447E-1	4.674839E-1	4.578577E-1	4.726209E-1	4.535972E-1	4.649242E-1	4.557119E-1	4.449208E-1	4.590563E-1	4.477288E-1	4.542458E-1	4.316301E-1	4.631378E-1	4.578285E-1	4.482289E-1	4.762439E-1	4.597476E-1	4.383439E-1	4.444062E-1	4.682363E-1	4.397563E-1	4.798844E-1	4.653915E-1	4.473952E-1	4.460527E-1	4.748325E-1	4.243536E-1	4.382671E-1	5.134728E-1	4.651477E-1	4.495221E-1	4.457833E-1	4.517815E-1	4.369111E-1	4.169690E-1	4.589511E-1	4.585315E-1	5.117317E-1	4.562717E-1	4.411611E-1	4.550193E-1	4.867670E-1	4.788726E-1	4.425306E-1	4.787982E-1	4.528023E-1	4.711752E-1	4.810317E-1	4.726791E-1	4.851659E-1	4.696221E-1	4.766094E-1	4.393097E-1	5.180716E-1	4.641569E-1	4.617058E-1	4.416271E-1	4.935884E-1	4.960507E-1	4.270689E-1	4.912816E-1	4.945040E-1	4.380849E-1	4.531113E-1	4.518184E-1	4.919716E-1	4.765290E-1	4.393842E-1	4.644322E-1	4.912123E-1	4.975147E-1	4.746403E-1	4.365744E-1	4.581393E-1	4.546640E-1	4.642116E-1	4.596026E-1	4.859443E-1	5.069864E-1	4.811260E-1	4.513449E-1	4.635830E-1	4.614532E-1	4.473213E-1	4.724507E-1	4.411557E-1	4.351639E-1	4.680511E-1	4.525330E-1	4.856495E-1	4.591863E-1	4.490404E-1	4.376978E-1	4.847681E-1	4.508421E-1	4.645262E-1	4.496200E-1	4.529514E-1	4.448228E-1	4.506405E-1	4.577663E-1	4.868239E-1	4.317212E-1	4.149293E-1	4.366760E-1	4.485706E-1	4.777600E-1	4.517949E-1	4.570870E-1	4.899580E-1	4.525277E-1	4.860183E-1	4.387805E-1	5.027106E-1	4.503839E-1	4.511008E-1	4.668724E-1	4.808732E-1	4.807352E-1	4.824033E-1	4.733973E-1	4.961017E-1	4.702520E-1	4.247647E-1	4.713236E-1	4.888462E-1	4.690592E-1	3.964318E-1
2.900020E+2	5.211889E-1	5.598508E-1	5.131826E-1	5.654030E-1	5.115661E-1	5.259049E-1	5.376572E-1	5.462185E-1	5.404714E-1	5.619561E-1	5.434701E-1	5.464878E-1	5.295435E-1	5.533690E-1	5.358500E-1	5.504688E-1	5.430258E-1	5.348882E-1	5.264871E-1	5.489318E-1	5.002254E-1	5.815422E-1	5.090878E-1	5.157256E-1	5.322658E-1	5.440610E-1	5.097182E-1	5.150056E-1	5.357529E-1	5.215028E-1	5.387991E-1	5.212417E-1	5.149998E-1	5.063386E-1	5.214711E-1	5.225296E-1	5.145170E-1	5.499975E-1	5.349747E-1	5.615997E-1	5.100187E-1	5.276791E-1	5.234127E-1	5.138405E-1	5.512742E-1	5.168041E-1	5.403844E-1	5.465319E-1	5.128385E-1	5.650031E-1	5.366974E-1	5.380932E-1	5.067354E-1	5.634579E-1	5.115027E-1	5.120458E-1	5.170196E-1	5.398764E-1	5.154795E-1	5.146748E-1	5.429899E-1	5.138489E-1	5.350996E-1	5.283242E-1	5.156032E-1	5.175069E-1	5.313988E-1	5.188884E-1	5.206136E-1	5.523154E-1	5.192890E-1	5.721595E-1	5.413103E-1	4.940701E-1	5.224058E-1	5.563914E-1	5.864724E-1	5.348503E-1	5.189552E-1	5.361172E-1	5.846487E-1	5.569517E-1	5.028512E-1	5.347785E-1	5.429984E-1	5.492258E-1	5.224764E-1	5.577457E-1	5.427401E-1	5.516928E-1	5.656839E-1	5.789702E-1	5.266932E-1	5.135295E-1	5.527184E-1	5.390289E-1	5.345950E-1	5.292819E-1	5.208747E-1	5.469655E-1	5.217470E-1	4.942126E-1	5.431403E-1	5.203896E-1	5.556805E-1	5.265373E-1	5.212282E-1	5.378621E-1	5.228414E-1	5.547824E-1	5.189823E-1	5.192293E-1	5.357612E-1	5.641392E-1	5.455389E-1	5.499474E-1	5.600028E-1	5.401157E-1	5.555859E-1	5.243160E-1	5.406774E-1	5.578433E-1	5.045675E-1	4.894344E-1	5.424747E-1	5.383651E-1	5.376485E-1	5.201617E-1	5.122644E-1	5.675573E-1	5.128995E-1	5.266208E-1	5.480480E-1	5.537158E-1	5.223706E-1	5.296282E-1	5.506678E-1	4.976943E-1	5.275974E-1	5.504148E-1	5.758576E-1	5.492879E-1	5.318291E-1	5.159914E-1	5.494287E-1	5.243264E-1	5.061918E-1	5.338152E-1	5.376127E-1	5.627463E-1	5.260361E-1	5.222036E-1	5.243556E-1	5.521546E-1	5.287376E-1	5.663473E-1	5.280938E-1	5.544721E-1	5.323295E-1	5.271804E-1	5.510229E-1	5.417832E-1	5.599937E-1	5.264939E-1	5.376121E-1	5.825089E-1	5.143930E-1	5.314936E-1	5.425898E-1	5.800387E-1	6.030279E-1
2.905110E+2	5.435052E-1	5.910100E-1	5.785181E-1	5.765664E-1	5.401383E-1	5.863724E-1	6.256674E-1	6.226737E-1	6.099789E-1	6.004995E-1	5.877716E-1	5.933406E-1	5.777314E-1	6.093276E-1	5.936207E-1	5.940699E-1	5.903461E-1	5.979773E-1	5.863064E-1	5.459226E-1	5.787232E-1	5.574918E-1	5.708414E-1	6.079685E-1	6.097652E-1	6.077627E-1	5.686012E-1	5.731705E-1	6.514165E-1	5.806440E-1	5.977448E-1	5.469793E-1	5.781862E-1	5.842776E-1	6.025650E-1	5.400657E-1	5.646177E-1	5.693511E-1	6.124996E-1	5.768147E-1	5.168469E-1	6.269437E-1	5.618142E-1	5.799212E-1	5.802698E-1	5.731665E-1	5.583309E-1	6.052653E-1	5.949202E-1	5.841054E-1	5.906182E-1	6.106160E-1	6.026249E-1	6.006206E-1	5.837170E-1	5.936289E-1	5.834798E-1	5.495298E-1	6.034510E-1	5.807883E-1	5.685301E-1	5.517955E-1	5.735764E-1	5.654001E-1	6.153778E-1	5.872396E-1	6.067060E-1	6.189316E-1	5.932111E-1	5.947853E-1	5.677297E-1	5.934232E-1	5.906900E-1	5.763675E-1	5.925758E-1	5.744955E-1	5.963679E-1	5.867236E-1	5.711447E-1	6.007561E-1	6.053370E-1	5.678080E-1	5.943672E-1	5.833577E-1	5.920282E-1	6.028395E-1	5.785878E-1	5.987739E-1	5.770112E-1	5.714653E-1	5.820592E-1	5.655992E-1	5.732819E-1	6.001349E-1	5.353938E-1	5.775907E-1	5.651775E-1	5.645232E-1	5.619237E-1	5.851317E-1	5.902906E-1	5.619032E-1	5.777670E-1	6.054481E-1	6.084977E-1	5.453245E-1	5.592831E-1	6.019708E-1	5.835593E-1	5.996783E-1	5.746052E-1	5.678515E-1	5.905288E-1	6.182483E-1	5.549433E-1	5.176242E-1	5.714717E-1	5.761417E-1	5.489223E-1	5.802932E-1	6.308568E-1	5.949674E-1	5.585004E-1	5.593963E-1	5.655448E-1	5.769423E-1	6.003235E-1	5.696052E-1	5.548963E-1	5.722102E-1	5.982489E-1	5.762394E-1	6.207978E-1	6.230761E-1	5.903316E-1	5.625912E-1	5.893798E-1	5.738863E-1	5.713586E-1	6.219728E-1	5.858565E-1	5.382511E-1	6.063460E-1	5.677774E-1	5.587758E-1	5.743396E-1	5.894030E-1	5.433209E-1	5.686412E-1	6.119869E-1	5.974382E-1	6.186462E-1	5.941461E-1	6.241476E-1	5.916282E-1	5.453702E-1	5.753845E-1	5.952341E-1	6.116560E-1	6.056587E-1	6.050896E-1	6.068860E-1	5.541332E-1	5.934317E-1	5.570813E-1	6.200588E-1	6.009328E-1	6.038553E-1	6.290802E-1	6.329752E-1	5.864524E-1
2.910070E+2	5.866397E-1	6.151437E-1	6.732075E-1	6.099008E-1	6.345897E-1	6.327536E-1	6.335164E-1	6.662601E-1	6.198366E-1	6.260084E-1	5.963447E-1	6.438084E-1	6.663971E-1	6.183220E-1	6.175576E-1	6.396575E-1	6.160609E-1	6.089672E-1	6.503423E-1	6.128521E-1	5.976787E-1	6.155002E-1	6.218201E-1	6.024491E-1	6.176065E-1	6.438078E-1	5.917982E-1	5.820462E-1	5.929567E-1	5.744122E-1	6.349430E-1	6.130169E-1	6.151284E-1	6.162777E-1	6.074755E-1	6.246585E-1	5.983455E-1	6.459186E-1	6.066862E-1	5.671314E-1	5.700157E-1	6.171720E-1	5.755509E-1	5.691798E-1	6.113534E-1	6.366832E-1	6.254116E-1	5.889782E-1	6.124229E-1	6.052442E-1	6.223917E-1	5.818042E-1	5.815508E-1	6.247122E-1	5.928363E-1	5.764574E-1	6.202948E-1	6.238928E-1	6.070041E-1	6.044612E-1	5.932774E-1	6.499656E-1	6.209321E-1	6.014406E-1	6.089533E-1	6.052095E-1	5.858985E-1	6.157622E-1	6.566836E-1	6.177603E-1	6.377530E-1	6.063078E-1	5.708357E-1	5.939323E-1	5.919028E-1	5.928862E-1	6.174438E-1	6.264745E-1	6.322892E-1	6.152135E-1	6.371067E-1	6.518634E-1	5.886822E-1	6.214056E-1	6.049623E-1	6.212441E-1	6.177400E-1	5.994405E-1	6.256007E-1	6.091083E-1	5.813600E-1	5.659364E-1	6.183143E-1	6.029994E-1	6.331324E-1	6.331492E-1	6.256237E-1	6.020705E-1	5.947105E-1	6.235974E-1	6.096328E-1	6.156431E-1	6.019830E-1	6.292463E-1	6.034372E-1	6.181190E-1	6.172097E-1	6.193282E-1	6.310371E-1	6.037215E-1	6.039420E-1	6.140267E-1	6.265648E-1	6.351716E-1	5.840918E-1	6.122495E-1	5.939890E-1	6.324194E-1	5.937879E-1	6.071539E-1	6.069840E-1	6.093832E-1	5.904779E-1	5.993371E-1	5.478875E-1	6.137642E-1	6.009186E-1	6.082779E-1	6.185628E-1	6.248132E-1	6.365399E-1	6.019378E-1	6.192409E-1	6.317562E-1	5.995812E-1	6.145499E-1	6.336476E-1	6.190056E-1	6.326701E-1	6.350971E-1	6.273126E-1	6.079135E-1	6.479134E-1	6.494285E-1	6.305410E-1	6.316091E-1	6.103208E-1	6.140567E-1	6.510898E-1	6.415859E-1	6.115396E-1	6.036218E-1	6.250430E-1	6.459966E-1	5.997509E-1	5.836973E-1	6.106473E-1	6.288937E-1	6.282728E-1	6.164293E-1	5.777376E-1	6.187580E-1	6.704178E-1	6.302033E-1	6.260108E-1	6.294585E-1	6.565294E-1	6.282227E-1	6.133940E-1	6.709349E-1	5.918709E-1
2.915110E+2	7.199414E-1	8.130136E-1	7.400914E-1	7.429643E-1	7.265267E-1	7.925312E-1	7.327683E-1	7.716903E-1	7.319901E-1	7.335456E-1	7.694910E-1	7.056380E-1	7.341860E-1	7.323577E-1	7.660820E-1	7.860866E-1	6.980743E-1	7.542990E-1	7.311173E-1	7.264353E-1	7.393870E-1	7.507376E-1	7.253189E-1	7.021025E-1	7.475192E-1	7.514985E-1	6.904083E-1	6.830083E-1	7.579405E-1	7.323848E-1	7.266061E-1	7.444340E-1	7.083015E-1	7.500287E-1	7.454435E-1	6.992700E-1	7.374027E-1	7.141328E-1	7.041546E-1	7.162365E-1	7.293774E-1	7.794271E-1	7.558494E-1	7.391101E-1	7.056060E-1	6.923003E-1	7.872341E-1	7.527797E-1	7.557889E-1	7.420591E-1	7.442640E-1	7.234049E-1	7.365411E-1	7.387357E-1	7.276687E-1	7.104334E-1	7.354317E-1	6.949391E-1	7.186655E-1	7.258356E-1	7.442607E-1	6.892752E-1	7.429317E-1	7.471731E-1	7.182172E-1	7.536416E-1	7.330493E-1	7.308224E-1	7.206592E-1	7.267973E-1	7.706459E-1	7.308139E-1	7.249926E-1	7.476823E-1	7.709251E-1	7.219625E-1	8.124041E-1	7.063473E-1	7.831804E-1	7.462914E-1	7.562693E-1	7.351290E-1	6.897711E-1	6.883792E-1	7.723661E-1	7.523005E-1	7.389413E-1	7.434456E-1	8.302626E-1	7.158710E-1	7.153002E-1	6.648734E-1	7.784766E-1	7.720202E-1	7.303281E-1	7.318059E-1	7.221933E-1	7.629018E-1	7.372592E-1	7.281316E-1	7.221458E-1	7.380052E-1	6.828749E-1	7.638005E-1	7.366585E-1	7.531390E-1	7.251021E-1	7.565467E-1	7.306121E-1	7.528079E-1	7.101342E-1	7.050806E-1	7.172840E-1	7.456668E-1	7.420315E-1	7.484267E-1	6.870471E-1	7.831213E-1	7.242496E-1	7.528820E-1	7.284579E-1	7.773360E-1	7.094232E-1	7.087231E-1	6.959719E-1	7.185456E-1	7.540197E-1	7.179573E-1	7.349500E-1	7.123654E-1	7.441038E-1	7.568275E-1	7.182379E-1	7.696362E-1	7.433807E-1	7.621981E-1	7.441664E-1	7.608560E-1	7.127282E-1	7.442735E-1	7.660160E-1	7.422642E-1	8.016788E-1	7.396853E-1	7.258663E-1	7.179828E-1	7.308899E-1	7.209212E-1	7.466903E-1	7.694896E-1	7.104858E-1	7.193988E-1	7.337022E-1	7.752451E-1	7.451801E-1	7.424685E-1	7.234607E-1	7.614859E-1	7.375831E-1	7.196826E-1	7.900916E-1	7.347116E-1	7.335069E-1	7.515866E-1	7.721741E-1	7.185576E-1	7.039994E-1	7.324947E-1	6.792717E-1	7.503055E-1	7.700667E-1
2.920030E+2	6.256266E-1	6.426083E-1	6.676430E-1	6.781480E-1	6.555627E-1	6.953447E-1	6.626938E-1	6.673755E-1	6.615926E-1	6.395383E-1	6.544953E-1	6.744212E-1	6.843860E-1	6.701908E-1	6.755350E-1	6.514596E-1	6.508303E-1	6.942114E-1	6.979299E-1	6.054825E-1	6.383947E-1	6.468171E-1	6.530182E-1	6.482648E-1	6.595466E-1	6.975144E-1	6.311382E-1	6.681412E-1	6.731852E-1	6.566518E-1	6.714936E-1	6.492865E-1	7.180051E-1	6.754796E-1	6.625640E-1	6.504083E-1	6.745935E-1	6.501346E-1	6.380190E-1	6.320668E-1	6.302236E-1	6.700409E-1	6.733714E-1	6.433882E-1	6.643014E-1	6.535980E-1	6.753398E-1	6.646826E-1	6.452869E-1	6.387783E-1	6.770770E-1	6.410745E-1	6.650548E-1	6.633863E-1	6.524729E-1	6.584206E-1	6.331119E-1	6.194680E-1	6.676238E-1	6.564496E-1	6.339051E-1	6.825779E-1	6.416292E-1	6.510865E-1	6.507360E-1	6.673424E-1	6.326992E-1	6.607506E-1	6.724438E-1	6.742946E-1	6.427539E-1	6.455472E-1	6.497574E-1	6.388956E-1	6.394119E-1	6.283424E-1	6.835142E-1	6.698801E-1	6.424328E-1	6.740852E-1	7.038788E-1	6.765160E-1	6.327775E-1	6.809432E-1	6.474051E-1	6.458177E-1	6.555133E-1	6.387016E-1	6.312911E-1	6.451739E-1	6.765388E-1	6.580671E-1	6.425662E-1	6.244119E-1	6.426807E-1	6.784606E-1	6.541414E-1	6.579886E-1	6.250421E-1	6.415700E-1	6.670375E-1	6.676426E-1	6.321025E-1	6.652789E-1	7.354375E-1	6.548213E-1	6.631150E-1	6.162091E-1	6.601328E-1	6.838765E-1	6.311434E-1	6.896047E-1	6.472538E-1	6.546222E-1	6.431655E-1	6.657899E-1	6.679998E-1	6.776102E-1	6.378192E-1	6.867334E-1	6.681934E-1	6.665115E-1	6.415395E-1	6.690177E-1	6.254496E-1	6.795584E-1	6.562813E-1	6.620336E-1	6.602509E-1	6.836709E-1	6.564867E-1	6.902448E-1	6.564154E-1	6.025615E-1	6.580838E-1	6.371600E-1	6.492629E-1	6.643412E-1	6.434526E-1	6.561146E-1	6.399650E-1	6.143445E-1	6.752988E-1	6.749238E-1	6.418670E-1	6.519289E-1	6.401614E-1	6.469617E-1	6.670872E-1	6.709337E-1	6.261289E-1	6.296206E-1	6.506669E-1	6.540677E-1	6.860604E-1	6.739577E-1	6.386612E-1	6.594958E-1	6.978786E-1	6.615698E-1	6.698560E-1	6.895543E-1	6.539805E-1	6.694501E-1	7.099674E-1	7.200306E-1	6.653084E-1	6.689862E-1	6.502352E-1	5.905497E-1	6.715473E-1
2.925020E+2	6.720863E-1	7.630977E-1	6.964332E-1	6.787896E-1	6.890263E-1	7.183582E-1	7.072121E-1	7.205451E-1	7.039696E-1	7.324939E-1	7.085760E-1	6.990021E-1	6.632429E-1	6.831565E-1	6.849024E-1	7.275537E-1	6.792200E-1	6.891567E-1	7.018086E-1	6.942245E-1	7.186499E-1	6.828561E-1	6.819526E-1	6.814294E-1	7.021611E-1	7.275883E-1	6.599247E-1	6.579698E-1	6.533724E-1	6.824746E-1	6.746344E-1	6.827048E-1	6.581336E-1	7.099108E-1	7.097000E-1	7.042468E-1	7.216210E-1	7.032682E-1	6.832586E-1	7.001779E-1	6.427945E-1	7.044619E-1	6.593363E-1	6.622646E-1	7.202334E-1	6.785225E-1	6.447888E-1	6.848990E-1	6.832756E-1	6.895265E-1	6.696148E-1	7.116089E-1	6.714316E-1	6.968503E-1	6.270900E-1	6.151473E-1	6.954036E-1	6.700931E-1	7.092310E-1	6.904859E-1	6.814107E-1	6.779951E-1	6.902351E-1	6.841355E-1	6.822786E-1	7.202806E-1	6.920884E-1	7.286063E-1	6.911426E-1	7.098327E-1	7.002913E-1	6.550777E-1	6.928369E-1	6.690558E-1	6.959920E-1	7.177356E-1	6.983642E-1	7.051014E-1	6.778169E-1	6.651675E-1	6.920037E-1	7.322214E-1	6.894984E-1	6.990112E-1	6.951381E-1	6.660790E-1	6.487078E-1	6.910383E-1	7.338656E-1	6.813392E-1	6.664254E-1	6.597910E-1	7.228598E-1	6.858698E-1	6.791284E-1	6.927201E-1	6.994262E-1	6.658537E-1	7.031353E-1	6.666140E-1	7.229181E-1	7.072669E-1	7.059931E-1	7.174606E-1	6.946849E-1	7.033401E-1	6.931122E-1	7.151454E-1	7.097273E-1	6.603816E-1	6.742664E-1	6.734588E-1	6.880436E-1	6.806865E-1	6.884556E-1	6.884790E-1	6.859206E-1	6.790276E-1	7.638837E-1	6.866121E-1	7.446066E-1	6.332951E-1	6.903842E-1	6.440801E-1	6.794492E-1	7.018315E-1	6.646102E-1	6.888926E-1	6.853559E-1	6.749406E-1	6.623740E-1	6.778827E-1	6.885515E-1	7.196887E-1	6.886907E-1	6.364697E-1	7.454176E-1	6.713935E-1	6.862062E-1	6.993515E-1	7.055257E-1	6.774207E-1	6.852403E-1	6.253590E-1	6.839769E-1	7.428292E-1	6.652742E-1	6.972215E-1	6.811888E-1	7.294885E-1	6.609063E-1	6.851609E-1	6.634236E-1	6.667065E-1	7.378776E-1	7.217068E-1	6.820755E-1	6.723742E-1	7.105021E-1	6.770219E-1	6.901069E-1	6.921069E-1	7.197424E-1	7.138651E-1	7.152459E-1	7.131693E-1	6.758163E-1	7.119961E-1	6.808646E-1	6.890626E-1	6.314711E-1
2.930040E+2	6.416080E-1	5.969153E-1	5.757732E-1	6.261361E-1	6.025893E-1	6.457952E-1	6.203244E-1	5.985896E-1	5.946577E-1	6.312983E-1	6.398132E-1	6.306310E-1	6.268061E-1	5.973549E-1	6.077740E-1	6.505341E-1	6.323641E-1	6.254811E-1	5.977868E-1	6.032095E-1	6.380186E-1	6.044126E-1	6.237295E-1	6.442902E-1	6.412397E-1	6.276490E-1	5.753756E-1	6.205198E-1	6.946471E-1	5.899911E-1	5.984151E-1	5.939333E-1	6.452915E-1	6.354413E-1	5.996711E-1	6.329968E-1	5.812639E-1	5.889371E-1	6.171002E-1	6.026741E-1	6.169171E-1	6.199915E-1	6.209642E-1	6.229138E-1	6.006135E-1	6.114372E-1	6.025373E-1	6.216388E-1	6.327564E-1	6.017432E-1	6.209444E-1	6.159104E-1	6.016521E-1	5.819072E-1	5.982584E-1	6.109530E-1	6.154668E-1	6.676141E-1	6.060307E-1	6.324028E-1	5.923674E-1	6.231876E-1	5.950295E-1	6.279241E-1	6.059390E-1	6.168743E-1	6.416233E-1	6.265234E-1	6.200977E-1	6.135783E-1	6.181147E-1	6.247639E-1	5.967584E-1	5.909386E-1	5.897851E-1	6.192141E-1	6.358666E-1	5.945702E-1	5.927424E-1	6.313614E-1	6.057971E-1	6.320038E-1	6.092142E-1	6.523547E-1	6.147894E-1	5.949135E-1	5.822992E-1	6.019186E-1	6.690307E-1	5.949734E-1	6.206022E-1	6.360214E-1	6.538529E-1	6.186145E-1	6.551729E-1	6.180302E-1	6.173490E-1	6.118691E-1	6.228856E-1	6.070104E-1	6.152003E-1	5.996279E-1	6.450450E-1	6.354526E-1	5.848824E-1	6.303958E-1	6.013072E-1	6.397231E-1	6.390072E-1	5.937190E-1	6.015426E-1	6.408714E-1	5.624997E-1	6.004626E-1	6.001665E-1	6.046624E-1	5.986597E-1	6.294851E-1	6.128379E-1	6.329395E-1	5.903408E-1	6.015282E-1	5.877782E-1	6.408318E-1	6.309206E-1	6.410324E-1	6.592196E-1	6.114076E-1	6.049155E-1	6.002027E-1	6.574264E-1	6.110488E-1	6.080929E-1	6.176987E-1	5.754947E-1	6.228619E-1	6.800959E-1	6.210739E-1	5.940732E-1	6.411046E-1	6.295827E-1	6.293199E-1	6.335389E-1	6.177973E-1	5.894465E-1	6.415772E-1	5.965332E-1	5.968540E-1	6.001696E-1	6.075288E-1	6.234273E-1	6.354164E-1	6.908623E-1	5.878255E-1	6.187909E-1	6.159240E-1	6.147957E-1	6.196498E-1	6.238385E-1	5.906170E-1	6.578036E-1	6.307454E-1	5.975932E-1	6.300593E-1	6.076230E-1	6.782861E-1	6.437950E-1	6.297116E-1	6.229296E-1	6.804650E-1	6.722956E-1
2.935090E+2	6.699681E-1	7.067529E-1	7.521029E-1	6.260423E-1	6.761351E-1	6.825907E-1	6.741228E-1	6.802199E-1	6.522033E-1	6.838304E-1	7.202039E-1	6.706763E-1	7.111018E-1	6.749970E-1	6.769570E-1	6.982940E-1	6.750892E-1	6.968756E-1	6.829319E-1	6.836281E-1	6.864785E-1	6.980547E-1	6.831252E-1	6.426415E-1	7.026034E-1	6.980855E-1	6.849111E-1	6.726971E-1	6.841442E-1	7.050863E-1	7.219338E-1	6.553599E-1	6.861426E-1	7.279790E-1	6.855750E-1	6.703427E-1	6.985553E-1	6.971328E-1	6.497604E-1	6.670749E-1	7.192303E-1	7.267803E-1	6.975760E-1	7.002565E-1	6.990403E-1	6.975452E-1	6.965364E-1	6.921605E-1	6.690685E-1	6.617220E-1	7.025222E-1	6.459246E-1	6.938206E-1	7.174162E-1	6.970762E-1	6.788623E-1	6.728359E-1	7.284697E-1	6.749168E-1	7.135269E-1	6.877045E-1	6.807187E-1	6.364577E-1	6.751361E-1	7.077613E-1	7.058157E-1	7.122392E-1	6.611680E-1	6.797539E-1	7.267307E-1	7.036951E-1	7.348002E-1	6.295212E-1	6.801461E-1	6.648927E-1	6.671297E-1	6.940450E-1	7.197149E-1	6.876377E-1	7.052396E-1	6.919098E-1	6.765862E-1	6.983518E-1	6.860590E-1	7.062273E-1	7.064075E-1	6.867908E-1	6.734780E-1	6.903688E-1	6.970548E-1	6.905277E-1	6.519879E-1	7.129813E-1	7.059253E-1	6.793880E-1	7.166573E-1	7.288669E-1	6.948420E-1	6.978662E-1	7.244347E-1	6.670619E-1	6.835423E-1	6.920427E-1	7.303317E-1	7.269961E-1	6.637440E-1	6.983046E-1	7.177538E-1	6.830606E-1	7.296199E-1	7.022785E-1	6.934780E-1	6.832518E-1	6.743681E-1	6.908590E-1	6.885454E-1	6.569309E-1	6.897584E-1	6.897281E-1	7.130354E-1	7.415023E-1	6.868406E-1	6.631838E-1	6.537016E-1	6.699536E-1	6.748421E-1	6.829389E-1	6.749930E-1	6.761617E-1	7.191844E-1	6.557524E-1	7.341666E-1	6.967674E-1	7.130763E-1	6.816737E-1	6.794462E-1	6.881821E-1	6.956697E-1	6.578874E-1	6.474491E-1	6.778653E-1	6.988948E-1	7.226161E-1	6.839513E-1	6.466764E-1	6.415236E-1	7.010948E-1	7.044655E-1	7.179657E-1	7.007513E-1	6.762412E-1	6.607144E-1	6.513641E-1	6.641392E-1	7.297687E-1	7.448043E-1	6.769018E-1	7.252768E-1	7.251631E-1	6.790585E-1	6.512904E-1	7.137784E-1	6.998205E-1	6.918675E-1	6.887031E-1	6.954286E-1	6.592777E-1	6.864583E-1	7.250363E-1	6.950044E-1	7.541389E-1
2.940070E+2	7.778008E-1	8.144912E-1	8.165056E-1	7.846715E-1	8.014028E-1	7.909936E-1	7.493904E-1	7.662281E-1	8.056414E-1	7.680813E-1	7.618222E-1	8.086635E-1	7.857043E-1	7.693668E-1	7.657806E-1	7.961116E-1	8.063806E-1	7.662002E-1	8.035804E-1	7.574927E-1	7.577262E-1	7.988638E-1	7.872278E-1	7.748053E-1	7.776229E-1	8.065673E-1	7.723284E-1	7.543496E-1	8.318662E-1	7.896032E-1	7.866754E-1	8.068693E-1	7.263114E-1	8.095249E-1	8.102379E-1	7.975262E-1	8.036912E-1	7.451274E-1	7.794152E-1	7.916028E-1	7.465790E-1	7.866330E-1	7.535426E-1	7.772300E-1	7.536475E-1	7.632795E-1	7.729666E-1	7.979853E-1	7.907619E-1	7.618067E-1	8.046489E-1	7.505650E-1	7.562704E-1	7.599857E-1	7.999576E-1	7.688259E-1	8.033113E-1	8.069489E-1	8.155111E-1	7.778958E-1	7.378955E-1	7.622328E-1	7.839230E-1	7.298622E-1	7.818501E-1	8.181030E-1	7.707726E-1	8.242559E-1	7.512234E-1	7.971345E-1	7.758568E-1	7.997824E-1	7.825322E-1	7.748897E-1	7.949999E-1	7.918916E-1	7.510613E-1	8.073568E-1	8.190756E-1	7.607774E-1	8.631614E-1	7.755213E-1	7.528876E-1	7.939859E-1	8.279383E-1	7.916275E-1	7.926390E-1	7.745661E-1	7.986323E-1	7.368213E-1	7.622861E-1	7.745604E-1	7.889404E-1	8.270751E-1	8.277958E-1	8.230305E-1	7.679304E-1	7.631155E-1	7.792907E-1	7.578035E-1	8.100038E-1	7.457271E-1	7.274648E-1	7.894086E-1	8.321237E-1	7.419415E-1	7.696195E-1	7.914576E-1	7.872701E-1	7.891273E-1	7.974492E-1	7.962119E-1	7.647116E-1	8.171996E-1	7.870015E-1	7.445976E-1	7.527989E-1	7.902871E-1	7.896480E-1	8.014093E-1	7.739633E-1	8.081919E-1	7.686837E-1	8.034797E-1	7.506273E-1	7.536778E-1	7.486252E-1	7.803280E-1	7.577138E-1	8.081246E-1	8.036145E-1	7.666285E-1	7.931006E-1	8.187891E-1	7.835121E-1	7.780391E-1	8.029340E-1	7.773834E-1	7.907075E-1	8.510324E-1	7.710804E-1	7.725476E-1	7.663758E-1	7.834337E-1	7.865591E-1	7.724967E-1	7.292546E-1	7.747510E-1	7.406416E-1	7.982559E-1	7.883872E-1	8.155253E-1	7.678703E-1	7.815496E-1	7.733881E-1	8.218990E-1	7.567224E-1	8.248762E-1	7.862929E-1	7.673585E-1	8.064416E-1	7.630360E-1	7.891876E-1	7.803962E-1	8.119515E-1	8.101726E-1	7.900148E-1	7.763185E-1	7.329626E-1	8.000769E-1	7.350380E-1
2.945030E+2	8.551207E-1	8.327211E-1	8.017223E-1	8.259053E-1	8.450015E-1	8.611531E-1	8.348643E-1	8.752103E-1	8.279826E-1	8.423096E-1	8.143428E-1	7.905272E-1	8.495131E-1	8.548332E-1	8.424081E-1	8.958697E-1	8.666511E-1	8.660458E-1	8.584236E-1	8.204041E-1	8.429436E-1	7.916000E-1	8.382489E-1	8.543032E-1	8.410728E-1	8.496506E-1	8.228337E-1	8.451207E-1	8.488220E-1	8.228052E-1	8.489638E-1	8.639171E-1	8.400271E-1	8.381689E-1	8.226936E-1	8.065363E-1	8.107699E-1	8.788225E-1	8.701622E-1	8.489673E-1	8.065153E-1	8.462376E-1	8.253413E-1	8.140973E-1	8.822838E-1	8.701360E-1	8.298997E-1	8.193292E-1	8.235251E-1	8.562787E-1	8.071997E-1	8.042707E-1	8.191126E-1	8.241144E-1	8.211697E-1	8.242229E-1	7.951630E-1	8.004852E-1	8.251767E-1	8.194404E-1	7.743545E-1	8.145904E-1	8.503936E-1	8.240230E-1	8.448068E-1	8.352005E-1	8.586675E-1	8.520930E-1	8.193835E-1	8.542805E-1	8.577121E-1	8.420928E-1	8.472676E-1	8.380006E-1	8.178207E-1	8.323421E-1	8.643547E-1	7.856770E-1	7.924033E-1	8.170155E-1	8.515636E-1	8.246880E-1	8.056242E-1	8.460219E-1	8.127283E-1	8.654558E-1	8.349521E-1	8.338755E-1	8.450967E-1	8.310813E-1	8.295244E-1	8.625103E-1	8.469142E-1	8.039213E-1	8.397122E-1	8.606064E-1	8.444425E-1	8.363531E-1	7.867148E-1	8.277973E-1	8.229793E-1	8.391041E-1	8.239256E-1	8.442974E-1	8.170885E-1	8.161027E-1	8.152477E-1	8.644965E-1	8.155493E-1	8.785803E-1	8.291593E-1	8.502305E-1	8.431529E-1	8.076013E-1	8.126799E-1	8.258429E-1	8.348059E-1	8.154959E-1	8.237717E-1	8.890348E-1	8.547060E-1	8.076013E-1	7.976266E-1	8.768322E-1	8.488263E-1	8.891723E-1	8.326267E-1	8.285867E-1	8.182550E-1	8.211775E-1	8.384193E-1	8.739992E-1	7.998214E-1	8.448962E-1	8.189679E-1	8.309707E-1	8.191022E-1	8.278652E-1	8.030932E-1	8.347306E-1	8.321961E-1	8.257108E-1	8.570064E-1	8.080010E-1	8.007146E-1	8.520148E-1	8.073250E-1	8.361981E-1	8.474439E-1	8.714784E-1	7.846775E-1	8.261452E-1	8.318174E-1	8.228110E-1	8.667674E-1	8.536016E-1	8.246469E-1	8.463642E-1	8.408542E-1	8.438340E-1	8.160868E-1	8.333787E-1	8.268151E-1	8.386704E-1	8.432217E-1	8.198423E-1	8.129708E-1	8.718141E-1	8.020934E-1	9.299155E-1	8.002745E-1
2.950070E+2	7.573796E-1	8.104948E-1	8.051552E-1	7.750474E-1	7.656083E-1	7.959901E-1	8.572516E-1	7.966583E-1	8.242800E-1	7.994403E-1	7.765148E-1	7.924246E-1	8.065635E-1	8.040659E-1	8.139848E-1	8.107679E-1	7.223500E-1	8.062513E-1	7.877722E-1	7.392885E-1	7.969764E-1	7.759092E-1	7.997049E-1	8.083496E-1	7.978711E-1	8.160408E-1	7.824223E-1	8.065601E-1	8.306067E-1	7.473195E-1	7.681224E-1	8.290232E-1	8.094864E-1	8.458455E-1	8.158000E-1	7.357135E-1	7.902975E-1	8.049696E-1	7.957906E-1	8.022293E-1	7.976240E-1	7.829961E-1	8.198253E-1	7.902310E-1	7.812854E-1	8.095315E-1	8.167399E-1	7.766736E-1	7.753002E-1	7.597420E-1	8.202538E-1	7.687676E-1	7.723282E-1	8.030752E-1	8.401813E-1	7.603024E-1	8.232281E-1	8.048719E-1	7.803100E-1	7.827177E-1	8.413144E-1	7.833130E-1	7.930213E-1	8.009974E-1	8.147301E-1	7.909766E-1	7.786660E-1	7.687365E-1	7.636321E-1	8.266775E-1	8.124916E-1	8.052170E-1	7.994728E-1	7.892336E-1	7.967633E-1	8.257289E-1	7.817748E-1	7.905939E-1	8.069592E-1	7.952678E-1	8.472780E-1	7.952335E-1	7.891933E-1	7.919093E-1	8.172190E-1	7.570680E-1	8.284211E-1	8.083202E-1	7.756302E-1	7.628396E-1	8.236267E-1	7.891799E-1	8.068264E-1	8.003242E-1	7.844272E-1	8.086249E-1	8.313028E-1	8.062040E-1	7.943145E-1	7.903626E-1	8.095749E-1	7.705082E-1	7.851361E-1	8.147412E-1	8.356480E-1	8.256959E-1	8.355997E-1	8.293931E-1	8.071545E-1	8.173922E-1	8.151735E-1	8.112611E-1	7.749321E-1	8.186400E-1	7.888757E-1	8.418565E-1	7.802179E-1	8.109398E-1	8.011722E-1	8.049099E-1	8.249838E-1	8.352554E-1	7.838590E-1	7.856372E-1	7.963143E-1	7.682880E-1	8.066905E-1	8.320067E-1	7.767880E-1	8.262140E-1	8.226519E-1	8.053423E-1	8.011498E-1	7.909571E-1	8.285783E-1	8.131271E-1	7.919156E-1	7.909507E-1	7.784055E-1	8.221824E-1	8.528084E-1	7.788375E-1	8.328008E-1	7.798278E-1	8.325946E-1	8.138959E-1	7.775756E-1	7.848484E-1	7.812853E-1	8.182342E-1	7.518426E-1	8.097383E-1	7.764125E-1	7.549290E-1	8.196250E-1	7.892781E-1	7.821201E-1	7.946968E-1	7.962061E-1	8.123597E-1	8.601621E-1	7.693316E-1	8.056113E-1	7.643775E-1	7.800890E-1	7.959639E-1	7.951735E-1	7.924171E-1	8.249095E-1	9.193343E-1	7.953379E-1
2.955070E+2	8.334470E-1	8.498941E-1	8.267555E-1	8.099716E-1	8.212924E-1	7.968380E-1	8.237321E-1	8.048308E-1	8.350905E-1	8.501084E-1	8.153078E-1	8.548916E-1	8.020241E-1	8.505318E-1	8.193061E-1	8.388291E-1	8.298365E-1	7.921084E-1	8.493315E-1	8.153500E-1	8.377711E-1	8.136572E-1	8.340287E-1	7.957684E-1	8.296530E-1	8.537875E-1	8.667103E-1	8.372565E-1	8.342120E-1	8.300281E-1	8.330545E-1	7.899896E-1	8.109275E-1	8.170396E-1	8.283415E-1	7.716285E-1	7.838522E-1	8.496056E-1	8.081870E-1	8.250447E-1	7.990573E-1	8.043915E-1	8.142218E-1	8.196847E-1	8.339764E-1	7.784416E-1	8.080533E-1	8.384283E-1	8.135234E-1	7.725568E-1	8.262203E-1	8.137096E-1	8.244781E-1	8.025682E-1	8.225459E-1	8.193813E-1	8.045108E-1	8.331959E-1	8.065876E-1	7.809001E-1	8.187965E-1	8.262797E-1	8.256096E-1	8.173640E-1	8.796610E-1	7.952465E-1	8.331648E-1	8.441327E-1	8.111740E-1	8.242389E-1	8.082221E-1	8.072247E-1	8.082677E-1	7.735449E-1	7.911412E-1	8.342759E-1	8.056477E-1	7.960908E-1	8.273420E-1	7.785342E-1	8.205966E-1	8.063649E-1	8.276824E-1	8.661747E-1	7.972941E-1	8.537784E-1	8.520137E-1	7.773789E-1	8.223180E-1	7.572564E-1	8.049559E-1	8.345849E-1	8.050780E-1	8.156136E-1	8.423338E-1	8.441909E-1	7.868502E-1	8.431683E-1	8.075959E-1	7.915453E-1	8.215262E-1	8.208178E-1	8.055672E-1	8.292050E-1	8.143862E-1	8.487460E-1	7.943461E-1	8.336322E-1	8.025327E-1	8.404794E-1	8.312952E-1	8.381765E-1	8.407147E-1	8.091029E-1	8.043120E-1	7.996851E-1	7.939761E-1	8.413989E-1	7.968101E-1	8.073929E-1	8.468199E-1	8.537836E-1	8.267753E-1	8.384565E-1	8.140688E-1	8.486584E-1	7.972227E-1	7.945359E-1	7.818606E-1	8.618157E-1	8.567865E-1	8.119488E-1	8.016916E-1	8.329014E-1	8.449759E-1	7.833861E-1	8.451087E-1	8.087742E-1	7.881832E-1	8.303372E-1	8.173119E-1	8.132552E-1	8.183122E-1	8.156054E-1	7.948713E-1	8.226514E-1	8.083136E-1	8.154705E-1	8.424553E-1	8.103992E-1	8.177914E-1	8.386001E-1	8.106099E-1	8.037146E-1	8.386168E-1	8.234945E-1	8.240240E-1	8.490016E-1	8.269666E-1	8.121972E-1	7.575694E-1	8.080509E-1	8.598156E-1	8.488618E-1	8.474024E-1	8.360016E-1	7.786501E-1	7.849236E-1	7.921653E-1	8.469506E-1	8.913274E-1
2.960050E+2	9.938866E-1	1.025472E+0	1.025245E+0	9.563503E-1	9.652008E-1	1.027733E+0	9.965262E-1	1.007138E+0	1.026216E+0	9.525542E-1	9.839507E-1	1.016377E+0	1.012070E+0	9.756545E-1	9.765294E-1	9.432513E-1	9.448508E-1	9.649227E-1	9.893582E-1	9.789361E-1	9.351194E-1	9.524407E-1	1.054363E+0	9.356127E-1	9.869728E-1	1.033404E+0	9.902804E-1	9.248472E-1	1.034783E+0	9.894518E-1	1.015618E+0	1.006591E+0	9.974664E-1	9.981802E-1	9.573388E-1	9.959152E-1	9.869590E-1	1.018620E+0	9.927083E-1	9.648637E-1	9.457682E-1	1.036235E+0	1.024529E+0	9.801661E-1	9.868593E-1	9.869283E-1	9.461761E-1	9.781275E-1	1.017496E+0	9.784563E-1	1.026132E+0	9.720997E-1	9.862517E-1	9.541234E-1	9.888007E-1	9.820330E-1	9.727685E-1	1.036135E+0	1.008303E+0	1.000546E+0	9.798007E-1	9.756178E-1	9.690063E-1	9.774958E-1	9.938094E-1	9.629239E-1	1.021259E+0	1.004419E+0	9.554488E-1	9.527932E-1	1.008325E+0	9.495788E-1	9.902186E-1	9.978664E-1	9.685161E-1	9.822579E-1	1.044959E+0	9.764962E-1	9.732748E-1	9.727305E-1	9.588955E-1	9.923064E-1	9.300043E-1	9.597708E-1	9.354814E-1	9.703750E-1	9.934744E-1	9.822832E-1	1.035896E+0	9.753938E-1	9.861069E-1	9.342044E-1	9.843153E-1	9.671140E-1	1.032103E+0	9.775629E-1	9.710307E-1	9.481108E-1	9.618796E-1	9.672309E-1	1.000018E+0	9.942981E-1	1.019563E+0	1.002770E+0	1.017089E+0	1.004623E+0	9.348343E-1	1.023015E+0	9.567947E-1	9.936052E-1	9.627012E-1	9.513051E-1	9.826597E-1	9.896308E-1	9.384241E-1	9.670559E-1	1.039372E+0	9.820934E-1	9.518646E-1	9.795552E-1	1.022977E+0	1.007313E+0	9.767158E-1	9.860786E-1	9.506770E-1	9.903057E-1	9.537184E-1	1.028742E+0	9.549051E-1	9.391066E-1	9.984193E-1	9.952481E-1	9.280202E-1	1.024901E+0	9.713344E-1	1.006273E+0	1.002059E+0	9.454419E-1	9.397020E-1	9.935057E-1	9.708676E-1	9.645514E-1	1.031252E+0	9.700518E-1	9.672538E-1	9.350461E-1	1.022453E+0	9.357368E-1	1.025493E+0	1.008437E+0	9.491294E-1	1.008204E+0	9.728282E-1	1.035514E+0	9.824538E-1	9.677239E-1	9.707263E-1	9.905842E-1	9.926980E-1	9.716687E-1	9.884320E-1	9.721136E-1	1.018627E+0	1.030899E+0	9.820295E-1	9.885615E-1	9.333193E-1	9.698011E-1	9.991501E-1	1.062991E+0	1.049971E+0
2.965010E+2	9.978391E-1	9.565376E-1	9.955073E-1	9.501843E-1	9.671578E-1	9.703065E-1	1.011018E+0	1.022206E+0	9.635695E-1	9.909780E-1	9.480582E-1	9.828752E-1	9.926265E-1	1.001423E+0	9.550704E-1	9.787810E-1	9.787327E-1	9.815421E-1	9.949233E-1	9.699530E-1	1.012761E+0	9.483448E-1	9.567301E-1	1.017079E+0	9.542129E-1	1.001459E+0	9.759596E-1	9.735489E-1	1.002501E+0	9.775597E-1	9.963517E-1	9.544217E-1	9.632664E-1	1.016765E+0	9.781200E-1	1.006242E+0	9.294007E-1	9.513964E-1	9.935069E-1	9.464088E-1	9.886625E-1	9.980381E-1	9.653825E-1	9.548949E-1	9.803234E-1	1.018708E+0	1.001764E+0	9.584873E-1	9.752968E-1	9.770729E-1	9.671180E-1	9.624911E-1	9.772699E-1	9.731268E-1	1.020873E+0	9.122585E-1	9.857048E-1	9.799636E-1	9.319408E-1	9.408626E-1	9.637889E-1	9.728065E-1	9.840456E-1	1.003580E+0	1.041757E+0	9.967126E-1	9.922070E-1	9.976515E-1	9.703108E-1	9.774240E-1	1.026928E+0	9.318090E-1	9.904765E-1	9.432910E-1	9.717324E-1	1.024271E+0	9.989260E-1	9.692269E-1	9.708347E-1	9.320325E-1	1.021109E+0	9.353867E-1	1.006546E+0	9.251231E-1	1.000537E+0	9.873774E-1	9.796841E-1	9.796741E-1	1.007837E+0	9.919610E-1	9.611947E-1	9.127369E-1	9.631570E-1	9.829608E-1	1.010134E+0	9.843477E-1	9.322366E-1	9.487627E-1	1.012729E+0	9.434481E-1	1.024792E+0	9.642095E-1	9.346160E-1	9.326864E-1	9.767625E-1	9.560673E-1	9.848723E-1	1.023344E+0	9.210629E-1	9.650744E-1	9.597506E-1	9.846875E-1	9.979294E-1	9.756641E-1	9.356723E-1	1.009963E+0	9.780192E-1	9.686788E-1	9.731426E-1	9.438195E-1	9.895224E-1	9.453562E-1	9.514432E-1	9.291157E-1	9.260485E-1	9.757997E-1	9.660047E-1	9.551370E-1	9.854814E-1	9.483475E-1	1.009226E+0	9.856617E-1	9.960665E-1	9.989631E-1	9.305170E-1	9.933043E-1	1.021280E+0	9.807745E-1	9.357054E-1	9.739764E-1	9.735089E-1	9.505076E-1	9.983234E-1	9.793168E-1	9.437221E-1	9.323173E-1	9.631908E-1	9.535676E-1	1.014185E+0	9.568677E-1	1.023979E+0	9.711822E-1	9.393232E-1	9.503581E-1	9.623984E-1	9.835286E-1	9.975705E-1	9.549004E-1	9.994706E-1	9.567162E-1	9.374899E-1	9.914916E-1	9.967811E-1	1.030503E+0	1.021613E+0	9.661639E-1	1.002823E+0	1.005455E+0	9.858384E-1	1.007739E+0	9.669021E-1
2.970040E+2	8.433444E-1	8.757982E-1	8.699638E-1	8.694208E-1	8.532722E-1	8.600061E-1	8.739217E-1	8.739904E-1	8.471145E-1	8.302775E-1	8.723684E-1	8.538745E-1	8.649391E-1	8.804987E-1	8.546775E-1	8.650857E-1	8.685101E-1	8.175100E-1	8.893760E-1	8.541887E-1	8.677997E-1	8.751851E-1	8.814616E-1	8.917770E-1	8.771648E-1	8.543639E-1	8.262624E-1	8.255900E-1	8.542132E-1	8.242239E-1	8.808173E-1	8.472870E-1	8.864039E-1	8.284445E-1	8.690149E-1	8.435811E-1	8.579806E-1	8.790951E-1	7.983989E-1	8.763688E-1	8.544496E-1	9.316162E-1	8.235587E-1	9.026737E-1	8.651074E-1	8.153107E-1	8.456603E-1	8.857998E-1	9.026029E-1	8.993603E-1	8.810257E-1	8.588167E-1	8.623248E-1	8.655506E-1	8.653887E-1	8.806583E-1	8.444157E-1	8.910337E-1	8.907475E-1	8.347452E-1	8.536949E-1	8.393666E-1	9.056457E-1	8.424390E-1	8.786190E-1	8.358876E-1	8.417058E-1	8.202479E-1	8.292457E-1	8.742526E-1	8.613968E-1	8.737184E-1	8.555229E-1	8.254616E-1	8.496103E-1	8.932178E-1	8.315131E-1	8.784213E-1	8.359266E-1	8.884786E-1	8.340490E-1	8.960421E-1	8.765226E-1	8.103066E-1	8.695727E-1	8.608523E-1	8.601976E-1	9.006456E-1	8.128656E-1	8.483333E-1	8.541769E-1	8.600752E-1	8.306471E-1	8.588339E-1	8.577195E-1	8.352974E-1	9.557815E-1	8.944613E-1	8.549550E-1	8.621740E-1	8.663621E-1	8.685559E-1	8.959799E-1	8.771278E-1	8.523906E-1	8.282147E-1	8.587961E-1	8.746189E-1	9.076200E-1	8.575115E-1	8.423023E-1	8.725049E-1	8.723788E-1	8.960792E-1	8.792923E-1	8.715621E-1	8.544413E-1	8.769697E-1	8.339676E-1	8.655879E-1	8.577118E-1	8.274643E-1	8.807919E-1	8.423500E-1	8.174493E-1	8.873572E-1	8.286944E-1	9.055859E-1	8.706580E-1	8.632318E-1	8.468029E-1	8.980580E-1	8.510473E-1	8.243675E-1	8.785251E-1	8.850657E-1	8.665221E-1	8.220860E-1	8.581771E-1	8.826362E-1	8.997619E-1	8.142652E-1	8.978557E-1	8.590637E-1	8.656843E-1	8.760497E-1	7.960237E-1	8.283307E-1	8.338951E-1	8.957749E-1	8.213256E-1	8.944681E-1	8.635456E-1	8.695151E-1	9.101066E-1	9.173018E-1	8.463405E-1	8.675196E-1	8.660083E-1	8.519249E-1	8.326612E-1	9.057237E-1	8.365547E-1	8.429049E-1	8.210021E-1	8.939754E-1	7.894475E-1	8.672485E-1	8.403470E-1	8.654662E-1	9.658108E-1
2.975040E+2	7.654443E-1	7.634569E-1	7.824881E-1	8.322924E-1	7.935712E-1	7.731667E-1	7.935344E-1	7.709760E-1	7.543546E-1	7.569499E-1	7.549739E-1	7.641587E-1	8.105874E-1	7.843402E-1	7.725463E-1	7.728488E-1	7.598549E-1	7.782689E-1	8.013373E-1	8.525913E-1	7.895134E-1	7.742322E-1	7.945910E-1	7.596193E-1	7.454490E-1	7.954852E-1	7.679110E-1	7.678846E-1	7.621491E-1	7.523211E-1	7.330069E-1	7.421992E-1	7.774642E-1	7.698167E-1	8.092914E-1	7.912400E-1	7.837308E-1	7.759337E-1	7.762361E-1	7.705014E-1	7.747878E-1	7.862799E-1	8.062939E-1	7.275403E-1	7.643008E-1	7.614633E-1	7.759199E-1	7.493462E-1	7.899930E-1	8.110413E-1	7.920380E-1	7.400796E-1	7.926304E-1	7.740535E-1	7.937393E-1	7.875061E-1	7.970528E-1	8.077037E-1	8.261005E-1	7.728387E-1	7.559389E-1	7.948939E-1	8.163677E-1	7.838709E-1	7.825281E-1	7.669682E-1	7.946291E-1	7.951625E-1	8.144948E-1	7.809420E-1	7.678687E-1	7.589030E-1	7.697750E-1	7.815888E-1	7.823357E-1	7.883362E-1	7.846339E-1	7.815386E-1	7.987906E-1	7.947181E-1	7.499527E-1	7.775203E-1	8.149717E-1	8.177546E-1	7.596383E-1	7.696308E-1	7.872498E-1	7.690719E-1	7.317201E-1	7.845314E-1	7.963409E-1	7.823770E-1	7.373100E-1	7.856952E-1	7.891327E-1	7.511182E-1	7.926061E-1	7.714724E-1	7.576938E-1	7.659544E-1	8.023054E-1	8.236814E-1	8.107268E-1	8.015464E-1	7.770642E-1	7.918549E-1	7.558438E-1	8.051526E-1	7.898471E-1	8.183550E-1	7.946076E-1	8.048862E-1	7.892579E-1	7.652027E-1	8.055915E-1	8.184712E-1	7.385755E-1	7.589581E-1	7.478322E-1	7.838151E-1	7.743286E-1	7.974489E-1	7.717254E-1	7.555764E-1	7.943698E-1	8.119569E-1	7.457111E-1	7.713713E-1	7.999520E-1	7.685113E-1	7.934901E-1	7.981679E-1	7.759483E-1	7.935614E-1	8.171700E-1	8.075090E-1	7.989957E-1	7.931290E-1	8.277297E-1	8.547083E-1	7.799710E-1	8.009803E-1	7.490908E-1	7.821528E-1	7.880582E-1	7.999072E-1	7.665751E-1	7.572650E-1	8.358628E-1	8.071813E-1	7.750271E-1	7.939241E-1	7.850407E-1	7.488083E-1	7.970375E-1	7.744817E-1	7.659514E-1	7.966363E-1	8.104714E-1	8.299870E-1	7.690005E-1	8.035486E-1	8.188575E-1	7.857808E-1	7.619639E-1	7.775399E-1	7.491650E-1	8.160994E-1	8.501188E-1	7.323761E-1	8.391821E-1
2.980020E+2	9.012981E-1	9.260333E-1	9.566086E-1	9.433185E-1	8.980387E-1	9.409032E-1	9.374940E-1	8.904856E-1	8.896785E-1	9.435056E-1	9.358129E-1	9.646282E-1	9.133566E-1	8.839393E-1	9.091917E-1	9.264379E-1	9.453909E-1	9.423135E-1	9.203365E-1	8.835281E-1	9.081524E-1	9.254479E-1	9.488930E-1	9.302687E-1	9.522592E-1	9.681462E-1	9.513211E-1	9.791617E-1	9.383048E-1	9.371950E-1	9.354251E-1	9.268695E-1	9.320089E-1	9.383624E-1	9.509758E-1	9.386362E-1	9.349439E-1	9.401964E-1	9.328093E-1	9.018784E-1	9.508930E-1	9.467230E-1	9.453313E-1	9.537021E-1	9.661850E-1	8.590658E-1	9.189181E-1	9.339117E-1	8.931109E-1	9.194797E-1	9.367281E-1	9.758183E-1	9.021724E-1	9.434207E-1	9.685599E-1	9.368011E-1	9.189460E-1	9.320242E-1	8.943104E-1	9.677862E-1	9.371552E-1	9.306605E-1	8.915077E-1	9.731047E-1	9.298480E-1	9.221275E-1	8.835648E-1	8.983483E-1	9.444849E-1	9.101443E-1	9.057662E-1	9.311033E-1	1.001399E+0	9.572950E-1	9.002609E-1	9.167695E-1	9.513518E-1	8.926997E-1	9.452061E-1	9.413617E-1	9.502094E-1	8.871796E-1	9.649403E-1	8.948682E-1	9.820527E-1	9.754699E-1	9.486095E-1	9.248922E-1	9.275267E-1	9.059549E-1	9.030166E-1	8.990131E-1	9.960074E-1	9.190391E-1	9.215322E-1	9.636412E-1	9.353166E-1	9.220748E-1	9.690319E-1	9.369805E-1	8.889556E-1	9.543186E-1	9.337039E-1	9.298087E-1	9.058979E-1	9.181130E-1	9.634663E-1	9.666401E-1	9.313369E-1	9.110723E-1	9.542734E-1	9.055832E-1	9.799757E-1	9.567695E-1	9.176844E-1	9.000095E-1	9.462071E-1	9.236146E-1	9.157058E-1	9.671280E-1	9.006213E-1	9.353859E-1	9.355609E-1	9.297504E-1	9.132577E-1	9.047463E-1	9.121745E-1	9.258308E-1	9.902337E-1	9.043505E-1	9.279562E-1	9.451509E-1	9.157495E-1	9.517154E-1	9.294487E-1	9.345218E-1	9.150941E-1	8.934053E-1	9.201138E-1	9.271357E-1	9.398139E-1	9.465267E-1	9.305172E-1	9.216085E-1	9.542778E-1	9.483578E-1	9.258010E-1	9.438677E-1	9.282062E-1	9.315480E-1	9.157919E-1	9.369544E-1	9.332370E-1	9.420320E-1	9.261548E-1	9.384343E-1	8.996474E-1	9.411323E-1	9.675718E-1	9.199906E-1	9.239022E-1	9.507060E-1	9.870081E-1	9.252422E-1	9.531604E-1	9.539722E-1	9.348109E-1	9.134192E-1	8.956106E-1	9.728680E-1	8.664036E-1
2.985020E+2	1.007626E+0	1.107136E+0	1.095936E+0	1.090710E+0	1.065381E+0	1.044410E+0	1.037564E+0	1.073045E+0	1.075311E+0	1.023326E+0	1.101465E+0	1.031661E+0	1.069329E+0	1.112389E+0	1.051235E+0	1.072230E+0	1.029571E+0	1.022094E+0	1.068092E+0	1.066781E+0	1.100777E+0	1.058950E+0	1.070776E+0	1.116121E+0	1.073908E+0	1.065859E+0	1.084022E+0	1.041405E+0	1.076451E+0	1.066660E+0	1.059598E+0	1.066990E+0	1.001055E+0	1.055776E+0	1.037696E+0	1.073286E+0	1.051987E+0	1.049319E+0	1.034963E+0	1.028729E+0	1.004162E+0	1.020920E+0	1.061260E+0	1.049285E+0	1.006681E+0	1.090817E+0	1.060181E+0	1.073353E+0	1.075610E+0	1.047063E+0	1.068706E+0	1.091843E+0	1.112632E+0	1.066411E+0	1.048995E+0	1.059182E+0	1.051422E+0	1.033716E+0	1.040268E+0	1.057884E+0	1.050400E+0	1.045417E+0	1.058471E+0	9.818703E-1	1.047124E+0	1.035265E+0	1.100488E+0	1.077360E+0	1.041240E+0	1.066917E+0	1.086834E+0	1.061699E+0	1.028313E+0	1.052771E+0	1.055981E+0	1.097163E+0	1.032315E+0	1.025701E+0	1.045046E+0	1.108736E+0	1.076878E+0	1.063896E+0	1.016342E+0	1.064034E+0	1.031522E+0	1.063142E+0	1.078556E+0	1.122305E+0	1.085033E+0	1.078425E+0	1.035642E+0	1.051372E+0	1.068854E+0	1.091183E+0	1.060758E+0	1.082469E+0	1.072310E+0	1.080156E+0	1.041701E+0	1.040405E+0	1.034912E+0	1.074293E+0	1.044754E+0	1.066306E+0	1.024351E+0	1.045465E+0	1.022864E+0	1.020586E+0	1.022476E+0	9.948040E-1	1.055143E+0	1.027309E+0	1.039272E+0	1.028110E+0	1.070244E+0	1.052249E+0	1.025256E+0	1.052677E+0	1.070583E+0	1.056475E+0	1.030465E+0	1.035741E+0	1.038578E+0	1.064913E+0	1.060803E+0	1.085835E+0	1.081479E+0	1.038866E+0	1.002028E+0	1.089286E+0	1.099584E+0	1.019110E+0	1.072492E+0	1.025270E+0	1.041664E+0	1.067860E+0	1.045504E+0	1.017079E+0	1.038658E+0	1.036675E+0	1.042360E+0	1.070652E+0	1.082204E+0	1.052966E+0	1.048811E+0	1.041340E+0	1.076776E+0	1.075513E+0	1.048566E+0	1.066987E+0	1.034086E+0	1.025776E+0	1.087191E+0	1.095635E+0	1.082080E+0	1.064096E+0	1.017645E+0	1.051470E+0	1.012290E+0	1.038042E+0	1.052168E+0	1.052558E+0	1.003539E+0	1.042721E+0	1.047754E+0	1.072421E+0	1.078804E+0	1.092674E+0	1.077076E+0	1.110283E+0	1.037953E+0
2.990040E+2	1.119342E+0	1.106225E+0	1.091408E+0	1.113101E+0	1.078934E+0	1.100681E+0	1.111486E+0	1.116167E+0	1.095810E+0	1.135817E+0	1.076763E+0	1.111646E+0	1.116191E+0	1.121529E+0	1.125993E+0	1.129018E+0	1.195600E+0	1.104620E+0	1.095282E+0	1.101936E+0	1.119679E+0	1.129539E+0	1.104618E+0	1.109246E+0	1.138002E+0	1.099145E+0	1.082384E+0	1.090312E+0	1.108798E+0	1.124075E+0	1.145987E+0	1.144248E+0	1.112814E+0	1.126303E+0	1.136315E+0	1.072758E+0	1.111043E+0	1.092101E+0	1.133308E+0	1.114444E+0	1.105113E+0	1.125100E+0	1.061587E+0	1.158343E+0	1.095718E+0	1.158867E+0	1.136242E+0	1.146255E+0	1.119024E+0	1.118943E+0	1.086940E+0	1.138093E+0	1.105646E+0	1.117320E+0	1.046733E+0	1.102980E+0	1.119230E+0	1.090273E+0	1.135287E+0	1.107619E+0	1.116328E+0	1.121141E+0	1.134899E+0	1.090158E+0	1.103399E+0	1.167609E+0	1.121673E+0	1.157783E+0	1.129046E+0	1.096831E+0	1.119510E+0	1.101469E+0	1.089262E+0	1.073702E+0	1.166319E+0	1.128964E+0	1.124469E+0	1.152898E+0	1.115594E+0	1.097418E+0	1.104850E+0	1.132800E+0	1.091656E+0	1.131366E+0	1.111553E+0	1.109239E+0	1.103084E+0	1.081708E+0	1.121594E+0	1.112607E+0	1.120891E+0	1.100327E+0	1.106595E+0	1.122151E+0	1.117448E+0	1.069981E+0	1.136790E+0	1.123496E+0	1.118636E+0	1.134360E+0	1.109726E+0	1.053082E+0	1.110682E+0	1.115136E+0	1.117290E+0	1.144885E+0	1.124631E+0	1.091296E+0	1.143079E+0	1.111379E+0	1.060090E+0	1.088316E+0	1.063888E+0	1.098601E+0	1.114932E+0	1.101883E+0	1.187153E+0	1.112379E+0	1.103000E+0	1.139832E+0	1.128748E+0	1.114076E+0	1.132843E+0	1.100116E+0	1.087838E+0	1.130910E+0	1.121854E+0	1.101023E+0	1.089831E+0	1.091208E+0	1.098584E+0	1.115037E+0	1.076986E+0	1.103548E+0	1.127260E+0	1.103950E+0	1.146974E+0	1.102242E+0	1.137397E+0	1.113265E+0	1.152925E+0	1.112406E+0	1.129102E+0	1.095338E+0	1.104210E+0	1.105180E+0	1.105872E+0	1.103313E+0	1.066255E+0	1.101613E+0	1.090240E+0	1.110421E+0	1.103788E+0	1.114025E+0	1.117835E+0	1.068631E+0	1.170652E+0	1.094366E+0	1.097397E+0	1.100816E+0	1.089367E+0	1.111020E+0	1.094782E+0	1.146826E+0	1.104807E+0	1.135758E+0	1.153501E+0	1.119135E+0	1.103768E+0	1.039343E+0	1.083986E+0
2.995060E+2	1.082803E+0	1.012002E+0	1.010622E+0	1.034704E+0	1.047537E+0	1.072467E+0	1.066129E+0	1.017207E+0	1.093385E+0	1.041554E+0	1.095183E+0	1.055595E+0	1.031334E+0	1.018713E+0	1.061360E+0	1.018673E+0	1.011644E+0	1.063477E+0	1.051283E+0	1.019910E+0	1.040462E+0	1.086554E+0	1.030112E+0	1.002522E+0	1.035178E+0	1.036932E+0	1.081333E+0	1.047909E+0	1.029457E+0	1.076551E+0	1.058819E+0	1.039275E+0	1.084400E+0	1.064307E+0	9.775164E-1	1.038009E+0	1.050974E+0	1.066961E+0	1.053007E+0	1.065227E+0	1.035754E+0	1.060175E+0	1.065882E+0	1.075083E+0	1.062791E+0	1.067774E+0	1.021024E+0	1.055005E+0	1.088735E+0	1.076047E+0	1.054959E+0	1.001807E+0	1.060941E+0	1.066691E+0	1.045380E+0	1.028833E+0	1.017317E+0	1.049500E+0	1.035434E+0	1.046755E+0	1.070135E+0	1.030462E+0	1.030461E+0	1.085170E+0	1.085239E+0	1.061708E+0	1.000183E+0	1.037142E+0	1.029004E+0	1.085879E+0	1.049230E+0	1.055947E+0	1.049600E+0	1.050270E+0	1.040211E+0	1.049994E+0	1.043889E+0	1.102255E+0	1.028119E+0	9.904277E-1	1.029160E+0	1.056593E+0	1.034375E+0	1.029683E+0	1.027914E+0	1.026232E+0	1.042629E+0	1.022679E+0	1.052806E+0	1.051675E+0	1.072220E+0	1.086069E+0	1.045341E+0	1.001841E+0	1.058406E+0	1.078834E+0	1.020561E+0	1.035936E+0	1.039904E+0	1.056653E+0	1.064240E+0	1.060896E+0	1.030807E+0	1.041003E+0	1.061266E+0	1.034073E+0	1.050886E+0	1.043168E+0	1.025420E+0	1.073945E+0	1.102368E+0	1.071859E+0	1.040740E+0	1.075397E+0	1.029667E+0	1.064911E+0	1.022709E+0	1.056677E+0	1.082674E+0	1.003323E+0	1.019308E+0	1.078064E+0	1.056914E+0	1.058461E+0	1.051837E+0	1.026077E+0	1.033777E+0	1.065565E+0	1.032598E+0	1.060153E+0	1.023368E+0	1.047530E+0	1.053619E+0	1.086192E+0	1.017053E+0	1.040268E+0	1.014457E+0	1.093387E+0	1.019111E+0	1.018124E+0	1.024346E+0	1.009732E+0	1.048789E+0	1.059223E+0	1.031569E+0	1.025551E+0	1.047816E+0	1.042565E+0	1.060626E+0	1.020484E+0	1.057168E+0	1.060473E+0	1.048573E+0	1.059207E+0	1.038855E+0	1.075745E+0	1.053545E+0	1.062986E+0	1.037813E+0	1.013934E+0	1.109747E+0	1.016414E+0	1.022089E+0	1.015634E+0	1.079757E+0	1.025515E+0	1.032536E+0	1.033219E+0	1.019137E+0	1.050856E+0	1.072302E+0
3.000060E+2	1.123487E+0	1.085146E+0	1.062937E+0	9.858741E-1	1.116538E+0	1.068372E+0	1.053793E+0	1.132120E+0	1.091461E+0	1.098847E+0	1.035803E+0	1.072311E+0	1.059202E+0	1.079089E+0	1.079674E+0	1.080792E+0	1.057939E+0	1.089227E+0	1.063669E+0	1.075254E+0	1.041416E+0	1.025277E+0	1.051010E+0	1.082223E+0	1.055204E+0	1.034432E+0	1.033030E+0	1.073328E+0	1.084839E+0	1.043198E+0	1.067164E+0	1.080419E+0	1.092258E+0	1.045434E+0	1.088206E+0	1.086070E+0	1.067321E+0	1.075489E+0	1.069676E+0	1.119220E+0	1.129290E+0	1.060802E+0	1.059646E+0	1.036046E+0	1.104325E+0	1.062012E+0	1.087715E+0	1.042129E+0	1.033528E+0	1.027426E+0	1.060629E+0	1.052358E+0	1.025979E+0	1.032104E+0	1.096592E+0	1.084698E+0	1.096032E+0	1.086783E+0	1.068599E+0	1.047117E+0	1.070043E+0	1.077425E+0	1.068293E+0	1.085826E+0	1.051862E+0	1.046323E+0	1.099462E+0	1.034204E+0	1.041731E+0	1.059287E+0	1.070791E+0	1.090878E+0	1.061652E+0	1.084373E+0	1.054892E+0	1.018773E+0	1.063340E+0	1.044908E+0	1.067245E+0	1.067339E+0	1.088950E+0	1.082011E+0	1.077715E+0	1.062294E+0	1.087319E+0	1.056287E+0	1.039872E+0	1.079344E+0	1.081320E+0	1.066807E+0	1.071890E+0	1.080842E+0	1.045893E+0	1.080091E+0	1.052723E+0	1.053957E+0	1.042416E+0	1.066865E+0	1.073033E+0	1.065647E+0	1.099860E+0	1.033729E+0	1.069326E+0	1.046200E+0	1.114131E+0	1.065610E+0	1.082309E+0	1.073157E+0	1.087841E+0	1.090444E+0	1.033518E+0	1.102046E+0	1.086865E+0	1.075919E+0	1.061881E+0	1.062476E+0	1.080099E+0	1.095694E+0	1.080205E+0	1.049426E+0	1.146529E+0	1.039285E+0	1.064378E+0	1.091184E+0	1.091894E+0	1.040474E+0	1.105005E+0	1.097344E+0	1.085358E+0	1.086492E+0	1.057018E+0	1.075006E+0	1.105205E+0	1.039714E+0	1.067404E+0	1.045891E+0	1.078975E+0	1.100757E+0	1.056991E+0	1.050091E+0	1.060584E+0	1.059703E+0	1.060297E+0	1.088712E+0	1.073074E+0	1.079664E+0	1.077160E+0	1.077477E+0	1.060484E+0	1.072187E+0	1.127687E+0	1.072452E+0	1.042170E+0	1.040293E+0	1.038038E+0	1.078612E+0	1.092559E+0	1.053409E+0	1.074457E+0	1.097231E+0	1.055815E+0	1.065754E+0	1.073724E+0	1.083796E+0	1.052557E+0	1.034794E+0	1.051183E+0	1.025454E+0	1.054290E+0	1.094274E+0	1.100173E+0
