Photon Energy (eV)	#1	#2	#3	#4	#5	#6	#7	#8	#9	#10	#11	#12	#13	#14	#15	#16	#17	#18	#19	#20	#21	#22	#23	#24	#25	#26	#27	#28	#29	#30	#31	#32	#33	#34	#35	#36	#37	#38	#39	#40	#41	#42	#43	#44	#45	#46	#47	#48	#49	#50	#51	#52	#53	#54	#55	#56	#57	#58	#59	#60	#61	#62	#63	#64	#65	#66	#67	#68	#69	#70	#71	#72	#73	#74	#75	#76	#77	#78	#79	#80	#81	#82	#83	#84	#85	#86	#87	#88	#89	#90	#91	#92	#93	#94	#95	#96	#97	#98	#99	#100	#101	#102	#103	#104	#105	#106	#107	#108	#109	#110	#111	#112	#113	#114	#115	#116	#117	#118	#119	#120	#121	#122	#123	#124	#125	#126	#127	#128	#129	#130	#131	#132	#133	#134	#135	#136	#137	#138	#139	#140	#141	#142	#143	#144	#145	#146	#147	#148	#149	#150	#151	#152	#153	#154	#155	#156	#157	#158	#159	#160	#161	#162	#163	#164	#165	#166	#167	#168	#169	#170	#171	
2.790040E+2	-1.057176E-2	-2.315781E-3	-3.133100E-3	-3.598128E-3	-5.726908E-3	-8.003571E-3	3.113885E-3	6.040802E-3	-6.645326E-3	-1.171936E-3	-8.192734E-3	-6.975489E-3	-1.371134E-2	-3.905442E-3	-1.366836E-2	-3.277603E-3	-8.996474E-3	-5.502816E-6	1.775245E-3	-1.342082E-3	-5.640648E-4	-8.103463E-3	-4.987127E-3	-7.230834E-4	2.352987E-3	-6.406491E-4	6.991788E-3	-7.829069E-3	-3.169945E-3	-8.027314E-3	-4.521963E-3	-2.207534E-3	-1.161915E-3	-4.563691E-3	-1.961362E-2	-3.283420E-3	-2.198475E-3	-1.008742E-2	-5.071875E-3	-5.807172E-3	-5.842290E-3	-1.115817E-3	-7.404245E-3	6.465332E-3	-3.680058E-3	-4.777540E-3	-6.344799E-3	-1.572913E-3	-3.681460E-3	-7.095380E-3	-1.551602E-3	-6.668490E-3	-7.499772E-3	-1.216344E-3	8.060256E-3	-7.374683E-3	-8.134329E-3	-2.927067E-3	-1.205667E-2	-7.367923E-3	-6.568812E-3	-9.003904E-3	-2.124024E-3	-6.240958E-4	1.614237E-3	-4.950764E-3	8.959209E-3	-1.013236E-2	-1.436024E-2	-6.069381E-3	-5.938904E-3	-5.991872E-3	-1.234858E-2	-1.133325E-2	5.126512E-3	-1.017451E-3	-1.390642E-3	-8.197281E-3	5.261784E-3	-8.433353E-3	-5.371598E-4	-1.933191E-3	-8.125301E-3	-1.444387E-2	-2.251265E-3	-3.194928E-3	-2.544263E-3	-6.583483E-4	-1.011675E-2	-4.919431E-3	-3.021570E-3	-1.073358E-2	-1.079500E-2	-7.547881E-3	2.833226E-3	-1.192233E-2	-2.345955E-3	-1.125558E-2	3.344261E-4	-6.264210E-3	-6.149308E-3	1.154622E-3	5.068729E-3	-8.506529E-3	7.058639E-3	6.577693E-3	-1.073421E-2	-8.985805E-4	-1.193925E-2	-2.925956E-3	-6.918397E-3	2.826451E-3	2.554001E-3	-2.973082E-3	-7.011140E-3	-6.424800E-3	-1.845859E-3	-1.290144E-2	6.642494E-4	3.282262E-3	-5.430778E-3	2.769619E-3	-1.968149E-3	-1.082970E-2	-7.187207E-3	1.587508E-3	-3.146264E-3	-8.448403E-3	5.109001E-3	-1.294880E-3	-1.078924E-3	-1.020782E-2	-6.072052E-3	-4.393540E-3	-8.047483E-3	5.278078E-3	-1.389137E-2	-7.359323E-3	-9.739426E-3	-4.127685E-3	-5.843314E-3	-1.051343E-2	-1.478429E-3	-4.164424E-3	1.649705E-3	-1.986404E-3	-6.094696E-3	4.670084E-3	-3.156535E-3	1.764232E-3	-2.204476E-3	-3.071098E-3	-4.837863E-3	-1.039205E-3	3.198675E-3	-1.605620E-2	-8.279266E-3	3.044977E-3	-1.029498E-2	-5.093369E-3	-8.779570E-3	-3.045652E-3	-6.313271E-4	2.730148E-3	4.087886E-3	-1.501158E-4	-4.580730E-3	-1.185105E-2	1.809610E-3	3.293968E-3	-2.726650E-2
2.795010E+2	3.048366E-3	-4.196378E-3	-6.459130E-3	-4.086464E-3	-6.252803E-4	-3.216204E-3	-1.578026E-2	-7.659724E-3	-8.273290E-3	3.453048E-3	-6.216173E-4	-1.112241E-2	-1.410601E-2	-2.483235E-3	3.569284E-3	-1.345243E-2	-1.642710E-2	-3.934720E-3	-1.230211E-3	1.641201E-3	-1.083574E-2	2.834591E-3	-5.427484E-3	-3.518364E-3	-1.583515E-3	7.952396E-3	-6.159429E-3	-2.193472E-3	-7.779589E-3	-6.447591E-3	-1.297164E-2	3.220133E-3	-4.140574E-3	-8.393934E-3	6.614480E-3	-6.193744E-3	-2.753414E-3	-4.730764E-3	-1.285000E-2	6.250314E-3	-9.578097E-3	-7.119937E-3	-4.330232E-3	4.545847E-3	-2.030393E-3	-7.237092E-3	-9.871311E-3	1.524992E-2	-5.973034E-4	8.471773E-3	-8.361788E-4	3.747363E-3	1.378191E-3	-1.143915E-2	-3.545753E-3	-4.705034E-3	-5.253025E-3	-9.167210E-3	1.169004E-2	-3.050566E-3	-3.950702E-3	-1.264006E-2	5.488845E-3	-6.994511E-3	9.758242E-4	2.697710E-3	-4.473751E-3	9.355425E-3	6.232945E-3	-7.508594E-3	1.032809E-3	-7.883074E-4	6.733212E-3	9.506324E-3	-2.508278E-3	3.656245E-3	-9.847470E-3	-8.624712E-3	-3.691948E-3	-4.687253E-3	-1.140334E-2	9.418206E-3	5.850304E-3	4.800876E-3	2.396902E-3	-5.632617E-3	-1.939381E-3	-3.233672E-3	-5.961897E-3	-7.475238E-3	-5.885644E-3	-1.578933E-2	-1.336634E-2	-4.208674E-3	1.162836E-3	3.337760E-3	8.524102E-4	-2.596486E-3	-6.519593E-3	6.801951E-3	-3.487929E-4	-4.201519E-3	-1.051334E-2	-6.795786E-3	-3.524662E-3	-2.508250E-3	-1.466937E-3	-6.358718E-3	-2.718311E-3	-1.463623E-3	-1.265562E-3	-3.814706E-3	-4.605817E-3	5.963176E-3	-6.288122E-3	6.446654E-3	-6.637686E-3	-1.230369E-2	8.085582E-3	-6.302329E-3	-1.267754E-3	-2.939867E-3	-8.892556E-3	5.006310E-3	-5.591885E-3	-3.748973E-3	-2.682360E-3	-7.833284E-3	1.177158E-2	-1.345575E-2	-5.152797E-3	2.058422E-3	4.107183E-4	-2.933531E-3	-8.485544E-3	-1.483917E-2	-1.900686E-3	4.352999E-3	1.396391E-2	-8.515432E-3	-1.028875E-3	-6.892162E-3	1.115621E-4	7.731709E-3	-6.029488E-3	-1.325885E-3	-6.587160E-3	7.657427E-3	2.471534E-3	1.476514E-4	5.321835E-4	-1.593821E-2	-1.936627E-3	8.417109E-3	-4.469597E-3	3.781162E-3	-6.636188E-3	5.366782E-3	-5.723263E-3	-1.414000E-2	3.789350E-3	1.971930E-3	-1.080177E-2	-1.562400E-2	-2.603064E-3	-1.066551E-2	-5.050576E-3	-9.087276E-4	-2.469107E-3	-7.993618E-3	3.888813E-2
2.800030E+2	1.339045E-4	-7.061187E-3	-1.391379E-3	-4.365504E-3	-7.566679E-3	4.856053E-3	-5.089308E-3	-5.332743E-3	-2.028691E-3	-5.158715E-3	-1.458098E-2	-6.502660E-3	1.933263E-3	-2.763181E-3	-5.509459E-3	1.073545E-2	9.712706E-3	6.763645E-3	8.038884E-4	4.808606E-3	-5.958303E-4	-7.020017E-3	-2.587175E-3	4.875938E-3	-9.546486E-3	-3.792842E-3	-1.977016E-3	4.855036E-3	-1.003952E-2	-3.628023E-3	-5.235791E-3	-5.308142E-3	-9.465154E-4	3.106822E-3	-9.052206E-4	-6.254695E-4	-6.888686E-3	-2.133977E-3	-1.596727E-3	-1.174833E-2	2.084744E-3	-6.390505E-3	-8.121669E-3	-1.233667E-2	-1.837914E-4	1.222714E-2	1.030639E-3	-5.467133E-3	-5.749098E-3	-8.828014E-3	6.121282E-3	-7.422355E-3	-3.083516E-3	-5.906505E-3	-5.564865E-4	7.202000E-3	-6.581471E-3	5.290256E-3	-9.007823E-3	-7.028580E-3	-1.189701E-3	-8.662969E-5	-7.919829E-3	-5.325571E-3	-7.775953E-3	-3.430429E-3	3.282135E-3	-9.554187E-3	-3.885245E-4	-2.988895E-3	1.803837E-3	-5.679422E-3	6.310330E-3	5.157321E-3	6.871783E-4	-2.073290E-3	-8.959063E-3	-6.139652E-3	-8.913280E-4	-1.836849E-3	-5.917983E-3	-7.188069E-3	-7.656233E-3	-1.150962E-2	-4.133019E-3	-8.721676E-3	1.578490E-5	-1.675571E-2	1.778488E-3	1.560126E-3	8.821540E-3	-3.286215E-3	-7.591273E-4	-1.656396E-3	-1.958462E-4	-5.739326E-3	-1.536945E-2	-8.493072E-3	1.428568E-2	-1.032643E-2	-1.702886E-3	2.257232E-3	-1.645678E-2	2.605749E-3	-1.360704E-3	3.883443E-4	6.647657E-3	9.315109E-3	1.237252E-3	-1.089039E-2	2.497044E-3	5.994469E-3	3.985120E-3	-2.617129E-4	6.756346E-4	-9.591788E-3	1.606880E-3	-2.725196E-3	-4.826689E-3	-2.120578E-3	-2.759316E-3	-2.168182E-3	-5.389357E-3	-1.895147E-2	1.445242E-3	7.232626E-3	-3.970020E-3	-4.086599E-3	-1.161892E-2	2.641131E-5	-5.431330E-3	-2.866061E-3	-8.742363E-3	9.243284E-3	5.373786E-3	-2.188201E-3	-1.096373E-3	-5.974478E-3	-8.272408E-4	-7.501640E-3	7.738260E-4	6.878654E-3	-2.200677E-4	7.358693E-3	-6.288710E-3	-3.997250E-3	5.972529E-3	1.406310E-3	-1.728920E-2	-7.323412E-3	-4.028933E-3	4.036411E-3	-8.949748E-3	-7.307257E-3	3.430651E-3	2.183730E-3	2.450022E-3	-5.587279E-3	-6.984969E-3	7.882343E-3	1.048565E-2	-5.961358E-3	-6.336960E-3	4.018293E-3	3.052063E-3	2.910672E-3	-9.316774E-4	1.584101E-3	-8.226100E-3	-8.234348E-3	-5.688516E-3
2.805030E+2	-1.156097E-3	3.110428E-3	-8.295697E-3	-1.763348E-3	-2.024613E-3	-1.402355E-3	7.164345E-3	2.501896E-3	-2.045169E-3	-1.023319E-3	9.512247E-4	-1.370893E-2	-3.793599E-3	-8.517522E-3	1.540674E-3	-1.932747E-3	-1.325036E-2	-7.522413E-3	4.248311E-3	4.807596E-3	6.074665E-3	5.714696E-4	5.647541E-3	5.122350E-4	-1.174123E-2	-3.857934E-4	1.371959E-3	2.375186E-3	-5.081273E-3	5.228451E-4	1.703302E-3	-9.371676E-3	6.119420E-3	-1.279564E-4	-9.555246E-4	-4.187627E-3	1.791281E-3	-2.149777E-4	1.191967E-2	-1.373901E-3	-2.241969E-3	-1.172313E-2	4.739234E-3	-8.817539E-3	-4.515175E-3	-3.528215E-3	5.074185E-3	-3.880618E-4	1.407728E-3	-2.470692E-3	-9.610676E-3	1.303003E-2	-1.010931E-3	-7.815847E-3	-5.497628E-4	7.204595E-3	-6.578361E-3	4.158050E-3	-6.139982E-4	1.862540E-4	7.845521E-3	2.045342E-3	-4.883728E-3	-5.312453E-3	-7.773941E-3	-2.272213E-3	-8.181982E-3	-4.914713E-3	-2.459397E-3	-1.156091E-2	-4.492570E-3	1.164455E-3	1.088465E-2	5.169678E-3	4.190547E-3	4.440124E-3	-3.346595E-3	-2.504681E-3	-1.881668E-3	7.556921E-3	-1.356969E-3	-2.228657E-2	4.305044E-3	-8.540354E-5	-8.252681E-3	2.554128E-3	2.296017E-3	-3.479281E-3	-6.246601E-3	-7.702392E-3	-1.484064E-3	1.334229E-3	5.659482E-3	-1.638195E-3	-3.233351E-3	-1.837895E-3	1.034301E-2	4.945545E-4	-1.817622E-3	1.979632E-3	-8.985823E-3	-6.344193E-3	-1.691705E-3	2.619101E-3	-7.493333E-3	-6.979923E-3	4.246278E-3	5.647326E-3	1.247335E-3	2.264799E-3	-4.626958E-3	-7.068707E-3	-1.260103E-2	-8.471730E-3	3.095158E-3	1.264103E-3	3.744853E-3	-7.599681E-3	-2.539738E-3	-3.221722E-3	-2.752183E-3	-1.066485E-4	8.987356E-4	5.892488E-3	1.457144E-3	-3.071173E-3	-3.951432E-3	-9.015475E-3	1.695390E-3	1.093111E-3	-4.260994E-3	-8.588526E-3	-1.830017E-3	1.115735E-2	-1.157675E-3	4.258233E-3	-1.004342E-2	-3.748385E-3	-8.226969E-4	-2.410959E-3	7.139403E-3	-1.117057E-3	-6.713513E-3	-1.110167E-2	-6.283380E-3	-2.807780E-3	1.464276E-4	-3.258012E-3	-2.962500E-3	2.941433E-3	-2.955812E-3	7.392765E-4	-4.463093E-3	-1.169342E-2	-8.240998E-3	-1.536829E-3	-3.768988E-3	6.957348E-3	-9.598380E-4	-7.974706E-3	1.109656E-3	2.756555E-3	1.256795E-2	-4.149962E-3	-5.853225E-3	-9.888199E-3	2.350889E-3	4.427409E-3	1.730946E-2	-2.939769E-3	-1.117964E-2
2.810080E+2	-6.223368E-3	3.128784E-3	4.093514E-3	-4.145559E-3	-4.202761E-3	-2.408023E-3	-2.230778E-3	3.922102E-3	1.954393E-4	-4.069302E-3	4.475080E-3	1.066040E-2	-4.714184E-3	-8.483552E-3	1.330282E-3	2.735203E-4	1.642687E-3	5.726856E-3	-1.740208E-3	-5.503982E-3	-1.555425E-3	8.232803E-3	-4.161042E-3	7.547165E-3	5.864659E-3	5.408820E-3	1.012358E-2	-8.429480E-3	-1.040448E-4	5.792916E-3	1.143713E-2	-1.025819E-2	-3.329887E-3	-9.786428E-5	-1.202701E-2	1.450698E-2	-2.024632E-3	-1.124947E-3	-1.423124E-3	-1.305330E-3	-3.292106E-3	-1.060873E-3	-2.739504E-3	6.169087E-4	-2.378082E-3	2.416601E-3	8.868878E-3	-4.401507E-3	-4.555323E-3	-8.798302E-3	8.519520E-3	4.629558E-3	1.095200E-3	3.747924E-3	-7.031712E-3	-7.939511E-3	1.047451E-3	-3.739539E-3	-8.999921E-3	1.403384E-3	2.868168E-3	-1.069163E-2	2.218288E-3	-6.230499E-3	1.870416E-3	-9.185995E-3	-1.265488E-3	-2.561351E-3	-3.461381E-3	5.659550E-3	6.075240E-3	-9.060046E-3	6.357317E-3	-1.382305E-2	-5.016730E-3	-2.088602E-3	1.177339E-3	3.880919E-3	2.223379E-4	-4.908246E-3	1.463785E-2	-2.820496E-3	-5.228013E-3	-5.765548E-3	3.151956E-3	-2.084202E-3	8.116911E-5	3.711485E-3	1.829121E-3	2.655542E-3	2.022131E-3	3.691222E-3	-6.053985E-3	2.174699E-3	2.998165E-3	-8.125547E-4	-9.222948E-3	8.404042E-3	-1.780628E-3	-1.029633E-2	5.656877E-3	4.252144E-3	4.038605E-3	-1.345653E-2	-2.542736E-3	2.567399E-3	-6.555817E-3	-2.004994E-2	6.608225E-3	-3.767134E-3	-5.601590E-3	-1.106028E-2	-7.462855E-3	-6.089095E-3	-2.901017E-3	-2.315209E-3	3.795729E-3	1.279458E-3	5.484637E-3	2.386320E-3	-2.680493E-3	5.062677E-3	4.718105E-3	-1.021964E-2	1.199899E-2	-1.131473E-3	4.082214E-3	-2.044751E-3	-4.318476E-3	9.567325E-3	-3.058460E-3	5.238624E-3	-3.748343E-3	-4.115337E-3	2.134292E-3	-4.267485E-3	-4.392983E-3	-3.694464E-3	4.052832E-3	5.304695E-3	8.470783E-4	-3.069717E-3	5.271564E-3	-8.973633E-3	-5.072487E-3	7.983696E-4	4.859808E-3	-6.734691E-3	2.212388E-3	-5.212542E-3	-1.836629E-3	1.205480E-2	4.559613E-3	3.776215E-3	2.344398E-3	9.882355E-3	-5.849964E-4	-1.625328E-3	-2.858271E-3	2.085923E-2	-1.276577E-5	-2.642948E-3	-5.129183E-3	1.480814E-2	-1.882098E-3	-1.961046E-3	-1.069270E-2	-9.928247E-4	-1.000333E-2	-2.851113E-3	-5.650875E-3
2.815020E+2	5.048503E-3	-2.094176E-3	2.762120E-3	5.694727E-3	-2.094233E-3	-8.776717E-3	-3.273666E-3	-1.173392E-2	9.248968E-5	-3.117111E-3	4.357630E-3	3.241767E-3	9.506612E-3	8.720238E-3	3.936178E-3	6.528469E-3	9.568150E-3	-2.096892E-3	-8.171098E-4	-2.102397E-3	-7.131025E-4	-2.316717E-3	2.410842E-3	-7.937866E-3	1.888095E-2	4.149740E-3	-3.730787E-3	-4.821362E-3	1.173448E-2	-1.598064E-3	1.049103E-4	1.405145E-2	2.447003E-3	-3.409876E-3	1.845018E-2	-7.729743E-3	-1.173585E-2	8.324728E-3	-1.913284E-3	-8.532112E-3	5.263650E-3	1.053843E-2	7.458427E-3	5.279428E-3	7.602295E-4	-6.271906E-4	-7.108685E-3	-2.435442E-3	1.151498E-4	3.824085E-3	-5.271970E-3	-7.447794E-3	-3.838483E-5	1.739459E-3	-2.199413E-3	-1.094356E-2	9.635037E-3	5.226304E-3	8.070855E-3	-1.103129E-3	5.770312E-3	8.349853E-3	-5.109913E-4	7.163118E-3	-6.638914E-3	-4.647400E-3	3.063448E-3	-1.069094E-2	-4.584067E-3	1.319185E-2	3.400576E-3	8.257101E-3	-1.199520E-2	-8.488103E-4	-1.185436E-2	3.294139E-3	7.804047E-3	2.000479E-3	-1.251624E-2	-7.582877E-4	3.137226E-3	2.476483E-3	4.456917E-4	1.001629E-3	5.108111E-3	7.202400E-3	7.383676E-3	9.744211E-3	1.889519E-2	8.729261E-3	-1.843444E-3	1.396008E-2	1.199816E-2	5.831611E-3	-6.473137E-3	5.905927E-3	1.025758E-2	8.284519E-3	-3.137278E-3	1.197382E-2	-2.779307E-3	-2.543739E-3	2.775050E-3	6.856845E-3	-1.419905E-3	-2.799441E-3	-1.841100E-3	-5.417745E-3	6.493744E-3	-8.399722E-4	6.535862E-3	-1.065304E-3	-8.847486E-3	8.555535E-4	6.629958E-3	1.564280E-2	-5.846305E-3	7.057252E-3	-7.149526E-3	4.497622E-3	1.003929E-2	-3.220905E-3	8.256088E-4	-1.621042E-3	-1.723154E-3	8.164696E-3	1.983761E-3	3.806053E-3	-6.834065E-3	1.047697E-3	3.120338E-4	5.119275E-3	1.191680E-2	2.506943E-3	3.133375E-3	7.427335E-3	1.116742E-2	6.157971E-3	-7.994280E-3	1.582410E-4	-3.128144E-4	4.852585E-3	1.057008E-2	2.084684E-4	1.124436E-2	-5.229744E-3	1.070690E-4	-1.510348E-2	5.178391E-3	8.755139E-4	-7.232095E-3	-1.479782E-3	6.733531E-3	-6.179004E-3	-9.388436E-3	-2.736379E-3	3.515648E-3	2.171741E-3	7.038316E-3	-2.627494E-3	1.057881E-3	2.713927E-3	-9.927225E-3	1.118483E-2	-4.944990E-3	6.845681E-3	2.338012E-3	-8.173618E-3	-1.370039E-2	-1.615952E-2	5.186098E-3
2.820060E+2	6.731599E-3	7.229724E-3	1.152051E-2	1.110996E-2	-2.880010E-3	9.419252E-3	1.002303E-2	5.439668E-3	4.885691E-3	7.608755E-3	-2.129940E-3	1.337770E-2	1.864981E-2	1.108754E-2	8.000026E-3	6.953625E-3	8.841887E-3	-3.952250E-3	-1.554380E-3	4.099820E-3	-5.125780E-3	-2.898923E-3	7.921224E-3	-9.841493E-3	-4.917002E-3	-6.953800E-3	-9.230040E-3	1.420951E-2	6.166150E-3	5.062104E-3	4.216612E-3	3.331014E-3	4.028416E-3	2.356225E-3	3.028977E-3	1.253582E-2	6.975747E-3	7.817423E-3	-1.578067E-3	7.514043E-3	1.002029E-2	4.615422E-3	-9.707070E-4	9.217562E-4	9.754829E-3	-4.254110E-3	-2.823031E-3	-4.130206E-3	1.129110E-2	2.052974E-3	-1.620710E-3	6.088541E-3	-1.730511E-3	8.922468E-3	-2.086016E-3	5.388750E-4	3.496793E-3	-1.145428E-2	-2.087019E-3	7.809483E-3	-4.959818E-3	-8.540994E-4	-1.195321E-3	3.736790E-3	1.667160E-2	8.499476E-3	-7.453199E-4	1.653479E-2	4.181880E-3	6.019444E-3	-7.172284E-3	1.237241E-2	-1.411876E-4	5.045779E-4	8.125801E-3	-1.016919E-2	3.763080E-3	1.703224E-2	8.617051E-3	5.759499E-3	3.532929E-3	1.490544E-2	5.099743E-4	1.178339E-2	-5.890922E-3	2.972094E-3	1.266437E-3	6.312525E-3	4.489599E-3	2.994474E-3	-3.034926E-3	8.863181E-3	4.974882E-3	4.407016E-3	-4.582553E-3	1.529689E-3	2.072658E-3	-2.576955E-3	-7.063094E-3	3.577796E-3	3.924991E-3	8.464894E-3	7.824987E-3	1.162693E-3	6.440170E-3	2.920807E-3	9.472999E-3	1.006452E-2	5.506932E-4	3.675565E-3	3.156204E-3	5.496188E-3	1.082660E-2	4.828987E-3	2.295159E-3	-6.858725E-3	-3.373009E-3	7.558817E-3	-7.006993E-3	-1.662046E-3	1.059517E-2	-4.940993E-3	3.452101E-4	5.130079E-3	7.137413E-3	-4.587370E-3	3.411230E-3	7.246216E-3	8.137267E-3	3.566268E-3	3.010862E-3	9.071533E-3	5.094191E-4	-1.160862E-2	-1.989591E-3	5.760090E-3	1.390288E-2	6.740872E-3	-1.602824E-3	1.217944E-2	-8.386725E-3	1.260209E-3	-5.295182E-3	4.800844E-3	2.285267E-3	9.580540E-3	6.010505E-4	5.556275E-3	6.695186E-3	9.548243E-3	3.902327E-3	-2.202764E-3	4.571383E-4	7.477333E-3	3.752595E-4	1.452048E-3	6.086163E-3	-8.159879E-3	4.494874E-3	-4.365056E-3	-5.635825E-3	4.246711E-3	1.554793E-2	-7.124725E-3	-5.323260E-4	1.038752E-2	7.133280E-3	1.221665E-2	1.033990E-2	1.072257E-2	-5.417329E-3
2.825040E+2	2.988849E-3	2.198587E-3	9.031600E-4	1.154319E-3	2.512049E-2	9.531566E-3	6.072749E-3	6.821921E-3	1.381885E-2	3.478580E-3	1.574134E-2	1.102962E-2	6.235444E-3	6.345152E-3	8.013729E-4	-5.828290E-3	8.908507E-3	5.021276E-3	-1.485536E-3	-6.408762E-3	1.331528E-2	8.700257E-3	1.183222E-3	9.085469E-3	6.896391E-4	-5.737872E-3	2.609944E-3	1.833650E-3	8.273745E-3	8.323126E-3	5.267434E-3	6.542953E-3	-3.015947E-3	1.113027E-2	5.407733E-3	-5.022797E-3	1.683403E-2	2.149937E-3	1.251341E-2	1.500249E-2	3.585775E-3	1.225640E-2	1.136870E-2	3.324934E-3	2.272441E-3	5.780403E-3	1.117412E-2	3.145340E-3	1.769203E-3	1.284356E-2	4.250334E-3	-5.956849E-3	1.088972E-2	1.196800E-2	7.908887E-3	1.601732E-2	1.236791E-2	1.261349E-2	1.300453E-2	9.151076E-3	1.850320E-4	2.288113E-2	8.926760E-3	1.358722E-2	1.056729E-3	1.328962E-2	-6.382497E-4	1.196333E-2	1.483879E-2	3.256933E-3	5.291295E-3	-2.743137E-4	-5.800542E-3	5.667204E-3	1.249329E-3	3.958030E-3	1.079930E-2	2.552689E-3	4.880015E-3	7.307569E-3	-2.092546E-3	7.428204E-3	9.898534E-3	1.421855E-2	9.870919E-3	6.904802E-3	-6.559440E-3	4.358794E-3	-4.667154E-3	4.157659E-3	4.425976E-3	1.960417E-3	8.341922E-3	2.637819E-3	7.490660E-3	9.538729E-3	3.412695E-3	7.738982E-3	5.698106E-3	2.553782E-3	1.038425E-2	-3.039440E-3	8.954454E-3	1.551446E-2	2.842531E-3	-1.666289E-4	2.311316E-4	7.698023E-3	-1.479688E-3	1.394671E-2	6.223395E-3	8.691885E-3	1.615146E-2	6.147903E-3	3.504369E-3	1.836961E-3	8.555397E-3	1.963449E-2	7.288477E-3	3.140471E-3	-5.743934E-3	5.544299E-3	9.462403E-3	2.559298E-2	-7.536538E-3	-4.445841E-3	4.272872E-3	2.037624E-2	-3.941771E-3	-5.501846E-4	1.565961E-2	1.745499E-4	7.555832E-3	1.434492E-4	9.038840E-3	-1.428883E-3	6.254539E-3	3.524808E-3	2.969726E-3	4.913335E-3	6.811421E-3	8.600920E-3	-2.246013E-3	4.140016E-3	8.494731E-3	4.968153E-3	9.949719E-4	5.806083E-3	6.850737E-3	-2.741119E-3	1.382343E-2	5.861372E-3	8.437049E-3	6.548229E-3	1.275005E-2	3.030109E-3	7.217606E-3	-2.168362E-3	1.528813E-2	5.459050E-3	-2.014372E-3	-3.916498E-5	4.710581E-3	-5.842712E-3	8.675754E-3	2.520997E-3	9.433501E-3	3.698056E-3	4.939946E-3	2.416183E-2	1.112863E-2
2.830030E+2	2.030584E-2	2.607225E-2	6.248758E-3	1.435213E-2	2.924617E-2	1.009721E-2	1.267205E-2	2.057665E-2	1.554263E-2	1.236158E-2	4.398793E-3	2.151280E-2	1.265776E-2	2.061697E-2	1.610154E-2	2.065999E-2	1.337718E-3	2.193861E-3	1.763641E-2	7.077953E-3	6.173948E-3	2.513935E-3	1.466109E-2	1.416177E-2	1.007383E-2	2.253718E-2	3.146037E-3	2.002262E-2	1.189825E-2	6.803902E-3	2.194634E-2	6.130259E-3	-2.576000E-3	5.201269E-3	3.604075E-3	6.099008E-3	1.355350E-2	7.534673E-3	1.216373E-2	3.927981E-3	1.622257E-2	2.161077E-2	1.537072E-2	1.099605E-2	4.964006E-3	7.295822E-3	2.084230E-2	2.026729E-2	1.808751E-2	2.856628E-2	2.395804E-3	5.442569E-3	9.552443E-4	-6.063896E-3	1.749390E-2	9.344594E-3	-3.756574E-4	6.290938E-3	2.179645E-2	4.821902E-3	3.751840E-2	1.708082E-2	1.151905E-2	1.816812E-2	2.364343E-2	1.628014E-2	7.453032E-3	2.441325E-2	2.298081E-2	3.113962E-2	6.707454E-3	1.316327E-2	8.700893E-3	6.150914E-3	-3.315635E-3	5.766447E-3	1.138944E-2	1.325747E-2	2.324701E-2	2.257160E-2	6.488126E-3	3.636012E-3	2.105562E-2	2.650886E-2	1.260167E-2	4.619890E-3	1.494579E-2	1.430583E-2	6.351738E-3	1.522723E-2	2.728476E-2	1.903558E-2	3.457306E-3	2.335645E-2	1.818344E-2	1.912385E-2	2.141485E-2	2.552033E-2	7.422712E-3	1.681052E-2	2.594568E-2	1.898552E-2	-1.083239E-3	3.058729E-2	2.346265E-2	1.109613E-2	7.368448E-4	2.210886E-2	1.155329E-3	5.300492E-3	7.814973E-3	1.648616E-2	1.038501E-2	5.497235E-3	8.717467E-3	1.099892E-2	3.691484E-3	2.295781E-3	1.493673E-2	1.283439E-2	6.632481E-3	3.019452E-2	1.703088E-2	1.360785E-2	3.615011E-3	2.590353E-2	1.942358E-2	1.697647E-2	1.754941E-2	2.468351E-2	2.301559E-5	1.018658E-2	1.315909E-2	2.221010E-2	1.057227E-2	4.573052E-3	2.405626E-2	8.648343E-3	6.693437E-3	2.650214E-2	6.318366E-3	1.643752E-2	-1.009519E-2	8.951049E-3	1.508356E-2	1.767451E-2	1.108854E-2	1.622055E-2	1.060973E-2	9.290748E-3	1.371165E-2	1.686989E-2	2.397711E-2	1.392000E-2	9.870781E-3	1.155067E-2	8.841497E-3	2.109575E-2	1.334128E-2	1.700679E-2	2.119618E-2	2.047677E-2	1.244022E-2	1.626551E-2	9.300948E-3	1.823652E-2	9.943977E-3	2.607916E-2	7.360299E-3	1.683493E-2	-1.712650E-2
2.835020E+2	2.934445E-2	6.191782E-3	2.808760E-2	2.053096E-2	2.245170E-2	2.516155E-2	2.908304E-2	3.248993E-2	1.537633E-2	3.904788E-2	1.947312E-2	3.279243E-2	1.863807E-2	2.770832E-2	3.413196E-2	3.180103E-2	1.522290E-2	1.328631E-2	2.878179E-2	3.465303E-2	1.707414E-2	1.717990E-2	1.828933E-2	1.750966E-2	3.375388E-2	8.235801E-3	1.712779E-2	2.774193E-2	2.116270E-2	1.205225E-2	2.210299E-2	2.524675E-2	2.512766E-2	2.399432E-2	3.256839E-2	3.736065E-2	3.461429E-2	2.932821E-2	2.079325E-2	2.211418E-2	3.973700E-2	2.393761E-2	1.529145E-2	2.904841E-2	-9.060378E-4	2.249057E-2	1.587106E-2	2.775899E-2	3.031901E-2	2.865875E-2	2.579809E-2	1.872964E-2	2.218547E-2	4.363644E-2	1.959434E-2	1.756661E-2	2.628463E-2	7.154035E-3	3.007691E-2	1.577515E-2	3.157701E-2	3.362574E-2	2.278900E-2	2.328197E-2	2.363152E-2	1.011560E-2	1.390697E-2	2.675944E-2	2.095053E-2	2.652441E-2	2.213555E-2	1.182119E-2	1.687268E-2	2.885954E-2	1.496120E-2	1.939795E-2	3.226224E-2	1.992337E-2	3.054761E-2	4.835834E-2	2.275939E-2	3.268118E-2	1.504974E-2	1.578319E-2	1.577790E-2	2.583176E-3	2.007536E-2	3.667827E-2	1.804448E-2	3.238371E-2	2.964922E-2	1.287669E-2	1.430903E-2	1.572770E-2	3.886830E-2	2.737882E-2	1.996471E-2	2.438598E-2	2.852901E-2	1.200072E-2	2.939409E-2	2.405912E-2	1.164848E-2	2.063213E-2	2.210318E-2	2.854695E-2	1.769369E-2	2.321736E-2	2.628758E-2	2.092485E-2	3.288469E-2	3.436524E-2	3.806957E-2	3.085077E-2	1.443413E-2	2.457431E-2	3.772468E-2	1.745891E-2	2.526427E-2	2.086108E-2	2.823190E-2	1.757574E-2	1.110125E-2	4.457418E-2	2.417291E-2	2.329208E-2	1.365851E-2	3.037648E-2	1.867679E-2	2.368031E-2	2.303572E-2	2.320983E-2	2.857879E-2	2.245300E-2	2.498840E-2	2.905528E-2	2.768115E-2	4.204288E-2	2.285722E-2	1.841979E-2	3.162163E-2	1.438891E-2	3.323436E-2	3.153673E-2	2.223977E-2	2.869694E-2	2.636742E-2	3.842388E-2	3.727041E-2	1.558637E-2	1.469298E-2	2.844602E-2	2.165594E-2	3.908813E-2	2.482084E-2	3.237722E-2	3.255605E-2	2.428765E-2	1.739304E-2	8.170926E-3	2.599310E-2	1.933175E-2	1.702207E-2	2.597688E-2	2.170007E-2	2.349807E-2	3.594548E-2	1.852174E-2	3.670008E-2	2.894124E-2	2.716473E-2
2.840000E+2	4.606146E-2	2.375360E-2	3.753095E-2	3.383913E-2	4.769505E-2	6.263357E-2	4.465819E-2	4.755681E-2	3.446559E-2	3.450010E-2	4.197185E-2	3.848344E-2	2.848812E-2	5.515296E-2	5.259070E-2	3.983354E-2	3.997247E-2	3.581827E-2	5.704855E-2	4.754418E-2	4.529194E-2	4.817671E-2	4.974653E-2	6.016729E-2	5.668248E-2	4.591522E-2	4.049845E-2	9.746604E-3	6.211871E-2	4.125264E-2	4.857780E-2	4.789908E-2	3.821149E-2	4.756850E-2	4.407334E-2	4.687312E-2	4.276131E-2	3.832818E-2	3.913414E-2	4.049114E-2	3.140558E-2	5.075514E-2	5.213455E-2	2.589968E-2	3.688348E-2	4.198688E-2	4.472096E-2	2.199928E-2	2.196117E-2	3.375638E-2	4.094275E-2	4.465705E-2	4.595912E-2	3.664065E-2	5.260300E-2	5.153009E-2	7.318074E-2	5.072608E-2	6.125149E-2	2.252186E-2	4.944603E-2	5.031751E-2	5.306441E-2	4.148925E-2	5.359805E-2	4.233839E-2	4.265640E-2	4.462028E-2	4.604482E-2	4.569591E-2	4.902607E-2	3.419132E-2	6.010210E-2	5.629648E-2	4.722463E-2	5.892785E-2	3.897218E-2	5.158753E-2	3.665295E-2	3.429332E-2	3.289797E-2	3.358826E-2	5.947182E-2	4.899853E-2	3.609533E-2	5.509503E-2	5.110931E-2	4.743764E-2	4.053304E-2	5.084056E-2	5.375865E-2	4.401456E-2	5.235552E-2	4.438935E-2	3.892666E-2	3.340276E-2	3.325087E-2	3.326457E-2	6.207172E-2	4.576830E-2	5.025413E-2	5.446786E-2	3.758505E-2	4.078919E-2	6.974418E-2	5.066189E-2	4.580292E-2	6.174899E-2	5.191594E-2	5.184842E-2	5.038094E-2	3.842417E-2	2.123732E-2	6.037033E-2	4.892184E-2	4.180785E-2	4.771027E-2	4.739622E-2	2.391144E-2	3.807258E-2	3.382938E-2	4.428285E-2	3.913975E-2	4.013659E-2	3.717465E-2	8.153890E-2	3.142591E-2	5.766368E-2	2.925044E-2	3.658144E-2	3.608262E-2	2.608096E-2	5.048757E-2	5.380817E-2	4.823010E-2	5.184442E-2	3.675426E-2	3.606131E-2	4.020266E-2	5.428456E-2	4.721996E-2	4.375016E-2	4.720065E-2	4.342576E-2	4.774624E-2	3.430578E-2	3.827464E-2	4.421614E-2	4.822124E-2	4.785031E-2	4.710563E-2	5.795363E-2	4.131009E-2	4.694513E-2	3.314818E-2	5.043632E-2	4.670888E-2	4.248627E-2	5.547398E-2	5.167527E-2	4.657144E-2	4.198566E-2	4.703011E-2	3.549082E-2	4.155048E-2	6.231220E-2	4.549835E-2	5.970362E-2	3.489157E-2	4.494741E-2	4.595421E-2
2.841030E+2	3.162972E-2	4.326165E-2	3.804837E-2	4.173167E-2	2.566649E-2	4.979216E-2	3.562571E-2	5.034827E-2	5.041449E-2	4.052733E-2	3.515954E-2	4.306231E-2	3.118298E-2	4.336163E-2	4.054794E-2	3.652858E-2	4.307102E-2	4.454744E-2	4.965145E-2	3.715487E-2	4.386714E-2	4.671708E-2	4.849817E-2	4.741916E-2	3.382153E-2	6.604904E-2	6.090837E-2	6.722566E-2	5.128876E-2	3.735528E-2	6.422532E-2	2.914160E-2	4.025484E-2	2.857325E-2	4.464835E-2	5.631195E-2	4.644276E-2	4.088800E-2	5.456961E-2	2.900969E-2	5.055573E-2	3.993840E-2	3.853640E-2	3.828475E-2	2.712508E-2	4.040165E-2	4.849239E-2	4.447405E-2	4.044428E-2	6.155668E-2	3.776653E-2	5.349304E-2	3.210076E-2	4.853194E-2	5.215666E-2	2.689057E-2	4.710634E-2	5.376394E-2	4.961019E-2	3.408630E-2	4.797519E-2	4.976469E-2	3.658849E-2	3.794161E-2	4.788336E-2	5.406720E-2	4.779517E-2	6.594348E-2	3.205069E-2	4.112307E-2	4.019344E-2	2.168100E-2	2.515555E-2	3.855293E-2	3.393112E-2	2.665731E-2	4.924183E-2	3.949669E-2	2.677972E-2	5.777035E-2	5.059560E-2	2.712977E-2	4.283799E-2	3.221692E-2	4.663632E-2	4.967827E-2	5.912332E-2	3.583273E-2	3.120042E-2	3.919824E-2	3.535723E-2	6.452702E-2	4.490442E-2	4.596345E-2	5.433631E-2	5.388922E-2	5.608851E-2	4.944173E-2	3.575321E-2	3.666487E-2	5.761111E-2	2.714522E-2	4.429403E-2	4.481871E-2	5.194088E-2	3.757575E-2	2.635367E-2	4.112444E-2	4.451028E-2	3.394763E-2	3.337655E-2	5.307796E-2	3.128556E-2	3.950900E-2	4.457489E-2	4.753170E-2	4.026407E-2	5.115804E-2	3.282907E-2	5.907327E-2	5.067229E-2	4.812473E-2	2.749473E-2	3.931550E-2	3.544029E-2	3.566433E-2	3.601520E-2	4.225700E-2	4.403551E-2	6.656347E-2	5.148993E-2	4.517026E-2	4.895013E-2	5.339131E-2	2.310979E-2	4.669929E-2	4.089256E-2	2.227950E-2	3.622636E-2	1.897299E-2	4.437526E-2	3.346416E-2	5.550275E-2	3.839313E-2	3.435470E-2	4.503595E-2	6.149920E-2	5.502854E-2	3.343193E-2	4.843108E-2	3.794245E-2	5.130500E-2	3.109742E-2	5.933540E-2	5.139893E-2	4.684924E-2	6.205383E-2	4.194720E-2	5.610253E-2	3.740254E-2	3.326952E-2	4.953946E-2	3.152465E-2	2.841236E-2	3.788661E-2	4.382298E-2	3.949573E-2	4.206011E-2	3.941198E-2	2.556276E-2	8.060088E-2
2.842030E+2	5.832148E-2	6.742057E-2	5.417227E-2	5.714479E-2	5.863333E-2	5.627884E-2	5.242887E-2	4.983885E-2	5.124712E-2	5.355541E-2	5.710024E-2	5.917737E-2	5.060486E-2	4.306257E-2	5.902429E-2	5.552109E-2	4.266964E-2	6.923623E-2	5.630966E-2	4.655675E-2	4.052626E-2	3.826657E-2	6.961713E-2	7.219951E-2	7.972661E-2	6.080043E-2	4.711439E-2	4.346675E-2	7.161564E-2	5.499682E-2	5.305318E-2	4.542406E-2	7.563303E-2	6.658041E-2	4.417527E-2	4.940540E-2	6.715634E-2	3.956472E-2	6.446395E-2	4.803804E-2	4.555258E-2	4.649655E-2	4.885467E-2	4.818786E-2	4.656172E-2	5.826034E-2	5.362646E-2	3.096815E-2	7.369229E-2	6.590442E-2	7.205676E-2	5.873558E-2	4.963008E-2	7.442486E-2	4.663077E-2	5.761526E-2	4.914533E-2	4.604276E-2	5.416904E-2	5.594511E-2	4.892120E-2	4.597926E-2	5.457400E-2	5.875778E-2	7.239281E-2	6.122329E-2	4.518161E-2	5.974943E-2	7.696458E-2	5.851300E-2	5.713082E-2	4.644837E-2	4.332837E-2	6.105432E-2	5.299191E-2	3.601949E-2	5.644573E-2	6.296376E-2	4.218919E-2	6.683832E-2	6.652163E-2	6.771085E-2	5.112066E-2	7.134871E-2	6.211301E-2	4.851367E-2	4.723986E-2	6.876385E-2	5.825084E-2	6.239904E-2	5.192051E-2	6.127007E-2	4.826936E-2	6.727334E-2	5.314703E-2	7.098771E-2	5.319786E-2	5.149875E-2	3.278636E-2	5.928506E-2	8.470619E-2	7.267967E-2	5.137205E-2	7.210509E-2	7.837672E-2	6.014894E-2	6.973219E-2	4.603477E-2	6.409615E-2	4.126529E-2	4.357906E-2	6.213866E-2	3.507257E-2	5.943520E-2	5.163032E-2	5.797900E-2	5.490953E-2	6.379202E-2	4.639276E-2	9.159968E-2	4.145780E-2	5.674485E-2	3.922680E-2	7.647696E-2	5.908112E-2	5.591312E-2	3.780649E-2	6.479429E-2	6.077301E-2	5.267529E-2	7.671384E-2	7.581225E-2	6.909718E-2	5.221139E-2	5.769011E-2	6.661245E-2	6.607179E-2	5.544047E-2	4.831974E-2	4.745919E-2	6.026828E-2	4.295741E-2	7.097069E-2	4.506000E-2	4.025137E-2	6.136017E-2	5.101400E-2	6.874954E-2	6.204653E-2	5.930782E-2	7.013025E-2	6.313704E-2	7.702040E-2	8.070500E-2	5.453305E-2	6.564217E-2	5.172531E-2	6.587369E-2	6.019674E-2	7.060041E-2	7.976993E-2	7.999780E-2	5.470208E-2	4.438956E-2	4.839830E-2	7.582085E-2	5.452489E-2	4.745524E-2	4.807374E-2	5.489606E-2	3.591705E-2
2.843010E+2	8.776643E-2	9.975775E-2	7.260935E-2	1.099625E-1	1.085725E-1	9.665365E-2	1.090293E-1	9.224095E-2	8.994008E-2	9.673961E-2	8.534477E-2	1.119997E-1	9.821058E-2	9.595054E-2	8.725141E-2	9.058082E-2	9.911028E-2	8.399363E-2	9.189044E-2	8.706137E-2	8.379844E-2	9.666205E-2	9.988491E-2	8.194487E-2	1.102394E-1	1.059665E-1	8.888217E-2	1.023057E-1	9.285531E-2	1.007913E-1	1.094253E-1	1.064052E-1	1.007105E-1	9.627116E-2	8.145111E-2	8.368908E-2	8.351448E-2	8.591275E-2	9.224768E-2	8.552630E-2	1.038584E-1	9.919924E-2	9.137978E-2	7.092032E-2	9.757904E-2	8.994870E-2	9.278243E-2	9.318893E-2	1.016284E-1	9.069146E-2	6.884468E-2	9.404812E-2	9.183311E-2	8.238563E-2	1.037993E-1	1.026826E-1	1.029862E-1	1.106885E-1	1.008335E-1	9.612381E-2	9.221975E-2	8.821081E-2	8.649346E-2	1.198173E-1	1.149965E-1	1.071380E-1	9.903592E-2	9.530499E-2	9.353553E-2	1.018665E-1	1.036136E-1	7.938132E-2	1.062987E-1	9.222819E-2	7.735052E-2	8.037390E-2	8.652768E-2	8.634493E-2	8.598756E-2	8.327904E-2	1.145066E-1	7.537538E-2	1.004510E-1	9.163992E-2	8.864754E-2	9.321731E-2	7.993984E-2	6.824298E-2	9.519766E-2	9.678347E-2	1.035293E-1	7.484484E-2	8.154137E-2	8.948407E-2	9.358813E-2	9.918350E-2	8.715049E-2	9.981998E-2	9.293094E-2	9.834963E-2	9.109953E-2	1.163545E-1	9.248448E-2	1.014440E-1	8.037597E-2	8.726448E-2	7.599564E-2	1.106524E-1	1.078185E-1	9.029200E-2	9.465376E-2	7.188861E-2	1.054696E-1	9.721288E-2	8.212110E-2	6.349750E-2	9.959000E-2	1.041341E-1	9.746123E-2	7.941287E-2	7.638946E-2	1.021439E-1	1.039275E-1	9.224663E-2	9.758947E-2	9.045805E-2	1.006524E-1	8.721352E-2	6.415019E-2	9.581678E-2	9.381009E-2	1.058177E-1	1.097405E-1	1.147704E-1	1.025485E-1	1.141772E-1	8.624381E-2	1.153645E-1	9.571405E-2	1.094224E-1	1.145206E-1	9.200758E-2	8.858843E-2	1.148958E-1	7.571443E-2	1.179210E-1	1.126467E-1	1.442761E-1	1.008619E-1	7.330990E-2	9.546329E-2	8.994137E-2	9.638030E-2	9.250727E-2	8.795624E-2	1.038224E-1	7.416882E-2	1.130085E-1	8.163442E-2	1.032266E-1	9.333254E-2	1.090810E-1	8.162609E-2	8.463407E-2	1.001026E-1	9.048744E-2	9.486866E-2	1.237075E-1	1.084585E-1	9.273581E-2	7.653270E-2
2.844030E+2	1.282095E-1	1.431015E-1	1.529270E-1	1.507113E-1	1.404500E-1	1.393530E-1	1.582300E-1	1.452112E-1	1.538494E-1	1.388631E-1	1.542640E-1	1.494142E-1	1.511866E-1	1.616177E-1	1.263705E-1	1.419138E-1	1.261071E-1	1.528805E-1	1.510126E-1	1.363884E-1	1.449956E-1	1.490053E-1	1.608449E-1	1.375025E-1	1.322805E-1	1.823032E-1	1.264637E-1	1.363561E-1	1.085850E-1	1.511898E-1	1.231226E-1	1.288373E-1	1.568830E-1	1.542907E-1	1.472888E-1	1.481694E-1	1.442158E-1	1.355008E-1	1.361730E-1	1.601768E-1	1.540269E-1	1.508581E-1	1.459985E-1	1.336112E-1	1.664631E-1	1.399724E-1	1.373194E-1	1.556098E-1	1.701080E-1	1.397166E-1	1.405915E-1	1.462385E-1	1.126391E-1	1.459327E-1	1.450012E-1	1.765460E-1	1.747908E-1	1.544473E-1	1.537939E-1	1.435325E-1	1.554752E-1	1.607659E-1	1.531787E-1	1.282686E-1	1.537044E-1	1.631704E-1	1.285343E-1	1.207763E-1	1.031112E-1	1.515199E-1	1.559250E-1	1.677353E-1	1.643768E-1	1.134659E-1	1.386036E-1	1.259888E-1	1.313859E-1	1.175778E-1	1.340640E-1	1.493585E-1	1.562355E-1	1.407619E-1	1.560971E-1	1.327875E-1	1.490994E-1	1.462042E-1	1.751211E-1	1.426431E-1	1.371258E-1	1.514789E-1	1.369615E-1	1.381915E-1	1.347344E-1	1.342495E-1	1.545593E-1	1.344089E-1	1.384858E-1	1.296936E-1	1.519254E-1	1.241637E-1	1.498396E-1	1.504975E-1	1.325359E-1	1.427692E-1	1.345944E-1	1.177336E-1	1.397858E-1	1.443799E-1	1.397470E-1	1.240289E-1	1.320432E-1	1.385443E-1	1.212279E-1	1.567544E-1	1.262389E-1	1.304783E-1	1.162646E-1	1.336296E-1	1.205044E-1	1.279945E-1	1.265961E-1	1.452674E-1	1.426770E-1	1.187356E-1	1.531239E-1	1.353641E-1	1.303017E-1	1.413643E-1	1.305496E-1	1.434852E-1	1.546199E-1	1.323441E-1	1.350992E-1	1.624914E-1	1.258911E-1	1.250674E-1	1.460074E-1	1.522824E-1	1.201903E-1	1.487754E-1	1.595292E-1	1.363164E-1	1.672285E-1	1.327180E-1	1.290361E-1	1.378534E-1	1.407658E-1	1.524740E-1	1.497314E-1	1.401562E-1	1.448113E-1	1.388172E-1	1.349761E-1	1.228013E-1	1.232993E-1	1.527624E-1	1.132149E-1	1.495420E-1	1.307832E-1	1.613073E-1	1.260054E-1	1.564056E-1	1.665365E-1	1.592329E-1	1.596197E-1	1.386835E-1	1.664095E-1	1.642964E-1	1.469889E-1	1.311404E-1	1.231101E-1
2.845010E+2	2.232609E-1	1.898220E-1	1.628822E-1	1.569127E-1	1.946697E-1	2.285737E-1	1.841736E-1	1.591858E-1	1.906996E-1	1.545049E-1	1.938902E-1	1.862135E-1	1.987570E-1	1.778835E-1	1.960493E-1	1.733270E-1	1.710187E-1	1.978173E-1	1.602341E-1	1.663320E-1	1.619233E-1	1.577306E-1	1.599615E-1	1.545944E-1	2.091410E-1	1.733689E-1	1.720560E-1	1.584491E-1	1.760425E-1	1.980740E-1	1.915356E-1	1.402268E-1	1.795910E-1	1.458487E-1	1.739414E-1	1.655069E-1	1.797152E-1	1.577412E-1	1.756776E-1	1.831220E-1	1.759934E-1	1.740494E-1	1.843882E-1	1.734294E-1	1.747732E-1	1.853893E-1	1.619866E-1	1.777007E-1	1.865170E-1	2.036806E-1	1.905284E-1	1.769001E-1	1.864356E-1	1.871981E-1	2.149046E-1	1.936050E-1	1.403170E-1	1.815247E-1	1.571902E-1	1.553025E-1	1.707966E-1	1.559591E-1	1.683050E-1	2.261281E-1	1.861897E-1	1.655288E-1	1.632683E-1	1.858348E-1	1.462459E-1	1.693857E-1	2.051746E-1	1.759876E-1	1.600237E-1	1.782243E-1	1.952009E-1	1.808941E-1	1.918427E-1	1.763837E-1	1.679487E-1	1.875631E-1	1.886337E-1	1.666041E-1	1.708747E-1	1.596555E-1	1.910417E-1	1.772013E-1	1.761617E-1	1.807369E-1	1.594785E-1	1.671930E-1	1.973260E-1	1.653067E-1	1.899276E-1	1.973779E-1	1.750812E-1	1.764518E-1	1.623522E-1	1.959813E-1	1.590939E-1	1.529358E-1	1.865038E-1	1.567204E-1	1.910944E-1	1.813551E-1	1.706147E-1	1.836958E-1	1.736814E-1	1.775093E-1	1.969342E-1	1.736450E-1	1.552068E-1	2.193342E-1	1.937918E-1	1.628584E-1	1.811236E-1	1.549391E-1	1.767090E-1	1.745655E-1	1.961095E-1	2.015870E-1	1.737071E-1	1.845679E-1	1.534976E-1	1.880041E-1	1.517423E-1	1.549605E-1	1.909004E-1	1.717749E-1	1.593407E-1	1.698949E-1	1.684908E-1	1.748621E-1	1.935772E-1	2.174985E-1	1.772896E-1	1.793019E-1	1.864476E-1	2.117467E-1	1.796748E-1	1.729394E-1	1.874768E-1	1.804559E-1	1.942895E-1	1.793063E-1	1.740297E-1	1.740548E-1	1.857473E-1	1.845107E-1	1.664226E-1	1.886261E-1	1.684793E-1	2.284995E-1	2.014359E-1	1.517318E-1	1.889227E-1	1.744237E-1	1.782307E-1	1.967853E-1	2.049452E-1	1.434738E-1	1.551799E-1	2.312998E-1	1.965437E-1	1.691340E-1	1.781487E-1	1.821122E-1	1.629037E-1	1.652599E-1	2.000741E-1	1.379255E-1	1.757992E-1
2.846010E+2	2.560720E-1	2.562144E-1	2.519602E-1	2.890690E-1	2.685750E-1	2.790845E-1	2.723059E-1	3.029923E-1	2.864930E-1	2.609723E-1	2.746310E-1	2.964455E-1	2.831390E-1	2.680756E-1	2.750680E-1	2.877998E-1	2.500007E-1	2.763182E-1	3.007109E-1	2.658613E-1	2.535548E-1	2.361760E-1	2.706230E-1	2.411366E-1	2.725642E-1	3.234921E-1	2.735292E-1	2.521150E-1	2.704299E-1	2.885512E-1	2.932022E-1	2.591843E-1	2.478535E-1	2.616893E-1	2.792225E-1	2.321621E-1	2.866065E-1	2.866532E-1	2.683798E-1	2.721132E-1	3.405377E-1	2.935187E-1	2.860374E-1	2.584556E-1	2.640002E-1	2.562084E-1	2.713967E-1	2.708526E-1	2.780765E-1	2.718139E-1	2.950497E-1	2.977835E-1	2.817436E-1	2.649616E-1	2.851373E-1	2.739640E-1	2.678063E-1	2.886644E-1	3.194540E-1	2.301981E-1	2.612905E-1	2.666340E-1	2.777594E-1	3.006206E-1	2.751996E-1	2.451574E-1	2.827271E-1	3.020616E-1	2.658348E-1	2.713467E-1	2.779399E-1	2.827073E-1	2.686291E-1	2.833662E-1	2.860498E-1	3.064046E-1	2.605940E-1	2.681347E-1	2.619017E-1	2.869579E-1	2.563004E-1	3.103575E-1	2.756163E-1	2.939731E-1	3.053552E-1	2.713304E-1	2.988355E-1	2.905051E-1	2.661331E-1	2.662732E-1	2.545225E-1	2.908574E-1	2.553787E-1	2.758943E-1	2.906167E-1	2.569688E-1	2.843607E-1	2.846041E-1	2.769913E-1	2.638282E-1	2.731965E-1	2.387846E-1	2.742335E-1	2.568741E-1	2.864927E-1	2.817803E-1	2.705680E-1	2.705750E-1	2.562521E-1	2.776833E-1	2.648447E-1	3.203639E-1	2.621190E-1	2.930903E-1	2.856196E-1	2.970217E-1	2.685073E-1	2.673445E-1	2.842246E-1	2.842085E-1	2.591582E-1	3.035565E-1	2.516894E-1	2.618722E-1	2.701937E-1	2.925518E-1	3.191997E-1	2.609396E-1	2.679359E-1	2.549887E-1	2.403707E-1	2.454057E-1	2.729806E-1	2.560529E-1	2.629467E-1	2.991621E-1	2.958003E-1	3.194430E-1	2.557178E-1	2.917258E-1	2.397805E-1	3.018989E-1	3.065470E-1	2.463425E-1	2.929729E-1	2.262608E-1	2.659552E-1	2.493169E-1	2.635289E-1	3.009627E-1	2.645969E-1	2.679123E-1	2.798754E-1	2.884640E-1	2.574220E-1	2.820420E-1	2.555255E-1	2.923796E-1	2.783834E-1	2.942328E-1	3.268244E-1	3.058202E-1	2.977514E-1	2.660503E-1	2.671510E-1	2.836693E-1	3.003214E-1	2.932912E-1	2.472820E-1	2.498007E-1	3.101375E-1
2.847020E+2	7.063776E-1	7.168319E-1	6.548040E-1	7.075499E-1	7.413922E-1	7.359740E-1	6.907642E-1	7.586230E-1	6.606291E-1	7.083312E-1	7.057292E-1	7.234209E-1	7.216940E-1	7.207493E-1	7.636165E-1	6.716735E-1	7.268011E-1	7.374627E-1	7.303138E-1	6.544879E-1	7.237964E-1	7.029191E-1	7.129253E-1	7.005976E-1	7.179610E-1	7.478347E-1	7.313493E-1	6.437345E-1	7.306177E-1	6.441899E-1	7.019669E-1	7.135777E-1	6.585239E-1	6.540213E-1	7.125679E-1	6.909055E-1	7.284213E-1	7.212262E-1	7.172496E-1	6.955629E-1	7.049173E-1	7.484645E-1	7.040051E-1	7.070807E-1	7.066170E-1	7.647176E-1	7.607585E-1	7.381709E-1	7.014505E-1	7.103248E-1	7.538982E-1	7.190678E-1	6.506700E-1	6.782616E-1	6.686352E-1	6.436368E-1	6.881219E-1	7.171580E-1	7.283414E-1	7.519272E-1	7.398295E-1	7.273299E-1	7.654337E-1	7.203147E-1	7.594661E-1	6.353967E-1	7.317088E-1	7.569574E-1	7.012767E-1	6.755167E-1	6.888057E-1	7.048859E-1	7.629429E-1	7.139526E-1	6.857021E-1	6.903485E-1	7.117740E-1	6.893779E-1	6.667293E-1	7.230491E-1	7.528083E-1	6.921842E-1	7.075740E-1	7.207069E-1	7.014396E-1	6.094572E-1	7.147678E-1	6.481118E-1	7.036386E-1	6.937211E-1	6.591546E-1	6.784613E-1	7.519646E-1	7.329195E-1	7.269497E-1	7.479300E-1	6.947456E-1	6.881089E-1	7.089317E-1	6.135201E-1	7.585130E-1	7.157362E-1	7.268501E-1	6.841463E-1	7.803090E-1	7.057634E-1	7.295678E-1	7.106714E-1	7.385529E-1	6.510484E-1	6.708604E-1	7.767618E-1	7.080324E-1	6.992979E-1	6.508169E-1	7.025423E-1	7.145161E-1	7.297331E-1	6.899387E-1	7.709721E-1	7.170680E-1	7.253489E-1	7.078424E-1	7.532466E-1	6.660494E-1	7.201247E-1	7.200326E-1	7.317592E-1	6.538792E-1	7.344851E-1	7.131079E-1	7.277851E-1	7.147661E-1	7.643632E-1	6.974464E-1	6.686198E-1	7.019863E-1	7.172173E-1	7.282956E-1	6.861818E-1	6.968558E-1	6.905485E-1	6.766504E-1	7.216082E-1	7.221972E-1	6.897052E-1	6.419442E-1	7.016736E-1	7.245934E-1	6.426286E-1	6.994580E-1	7.179037E-1	6.636120E-1	7.119695E-1	7.171567E-1	6.726684E-1	7.067312E-1	7.099865E-1	7.066166E-1	7.260007E-1	7.337199E-1	6.990809E-1	7.412010E-1	7.214619E-1	6.952653E-1	7.199333E-1	7.197419E-1	7.619243E-1	6.566253E-1	6.942965E-1	6.781520E-1
2.848000E+2	1.370747E+0	1.486911E+0	1.353496E+0	1.401298E+0	1.416432E+0	1.515506E+0	1.434523E+0	1.447339E+0	1.375067E+0	1.480996E+0	1.471156E+0	1.375417E+0	1.399244E+0	1.425160E+0	1.399699E+0	1.399467E+0	1.412385E+0	1.502568E+0	1.445173E+0	1.481073E+0	1.332912E+0	1.394462E+0	1.392694E+0	1.441309E+0	1.376681E+0	1.437882E+0	1.388670E+0	1.406742E+0	1.427932E+0	1.425567E+0	1.391129E+0	1.429306E+0	1.404095E+0	1.428655E+0	1.414669E+0	1.370406E+0	1.420577E+0	1.420210E+0	1.416918E+0	1.422692E+0	1.360655E+0	1.450375E+0	1.460307E+0	1.343291E+0	1.324249E+0	1.415422E+0	1.415546E+0	1.413955E+0	1.359364E+0	1.359718E+0	1.451964E+0	1.312399E+0	1.404524E+0	1.414775E+0	1.350583E+0	1.449475E+0	1.374855E+0	1.479382E+0	1.396045E+0	1.431891E+0	1.376942E+0	1.503342E+0	1.338695E+0	1.389883E+0	1.475368E+0	1.355759E+0	1.414888E+0	1.440134E+0	1.438006E+0	1.442752E+0	1.371142E+0	1.409774E+0	1.447787E+0	1.350366E+0	1.310688E+0	1.439115E+0	1.470690E+0	1.277213E+0	1.412891E+0	1.414566E+0	1.390133E+0	1.412292E+0	1.420048E+0	1.437378E+0	1.356794E+0	1.405056E+0	1.410919E+0	1.345255E+0	1.400540E+0	1.386924E+0	1.362134E+0	1.397929E+0	1.364401E+0	1.393057E+0	1.485309E+0	1.402882E+0	1.358738E+0	1.303283E+0	1.442345E+0	1.307761E+0	1.442600E+0	1.325247E+0	1.399292E+0	1.408310E+0	1.501678E+0	1.370156E+0	1.483351E+0	1.464438E+0	1.418468E+0	1.410628E+0	1.431754E+0	1.429827E+0	1.344108E+0	1.452614E+0	1.417561E+0	1.400357E+0	1.423872E+0	1.355960E+0	1.381883E+0	1.457206E+0	1.434858E+0	1.348636E+0	1.331523E+0	1.408111E+0	1.364197E+0	1.470275E+0	1.409087E+0	1.437052E+0	1.383758E+0	1.345212E+0	1.443849E+0	1.460356E+0	1.368662E+0	1.405422E+0	1.423496E+0	1.421599E+0	1.446999E+0	1.414328E+0	1.382046E+0	1.510796E+0	1.466044E+0	1.400360E+0	1.389128E+0	1.386697E+0	1.304070E+0	1.356817E+0	1.375129E+0	1.391524E+0	1.439566E+0	1.480759E+0	1.413878E+0	1.384158E+0	1.388749E+0	1.371828E+0	1.445145E+0	1.398112E+0	1.405985E+0	1.354168E+0	1.396068E+0	1.410370E+0	1.366993E+0	1.467995E+0	1.324097E+0	1.451609E+0	1.394499E+0	1.479519E+0	1.464893E+0	1.497703E+0	1.431962E+0	1.516791E+0	1.586822E+0
2.849040E+2	1.692344E+0	1.686992E+0	1.657184E+0	1.625317E+0	1.717921E+0	1.678424E+0	1.708893E+0	1.751169E+0	1.778709E+0	1.618537E+0	1.688181E+0	1.686482E+0	1.654614E+0	1.684706E+0	1.577117E+0	1.655268E+0	1.715902E+0	1.760590E+0	1.752514E+0	1.612556E+0	1.770258E+0	1.609463E+0	1.676161E+0	1.732238E+0	1.702038E+0	1.774281E+0	1.656926E+0	1.635888E+0	1.654976E+0	1.695874E+0	1.675782E+0	1.625652E+0	1.741181E+0	1.669248E+0	1.764319E+0	1.577860E+0	1.678017E+0	1.679948E+0	1.688788E+0	1.750164E+0	1.687396E+0	1.707287E+0	1.616590E+0	1.709926E+0	1.661630E+0	1.695262E+0	1.743623E+0	1.693249E+0	1.672944E+0	1.687189E+0	1.723436E+0	1.678872E+0	1.715717E+0	1.710847E+0	1.711347E+0	1.712468E+0	1.670181E+0	1.624496E+0	1.708906E+0	1.739341E+0	1.669642E+0	1.724579E+0	1.613177E+0	1.694800E+0	1.667348E+0	1.613348E+0	1.647315E+0	1.700534E+0	1.685490E+0	1.770223E+0	1.632414E+0	1.683141E+0	1.692319E+0	1.640331E+0	1.663250E+0	1.734069E+0	1.722644E+0	1.705949E+0	1.663458E+0	1.708983E+0	1.687664E+0	1.626681E+0	1.662793E+0	1.692596E+0	1.581570E+0	1.687793E+0	1.663393E+0	1.631193E+0	1.677449E+0	1.712142E+0	1.664394E+0	1.736229E+0	1.671458E+0	1.694194E+0	1.703754E+0	1.719675E+0	1.668328E+0	1.704889E+0	1.735439E+0	1.592445E+0	1.712629E+0	1.716965E+0	1.734796E+0	1.725095E+0	1.778174E+0	1.610640E+0	1.758739E+0	1.724365E+0	1.592395E+0	1.661289E+0	1.736116E+0	1.741031E+0	1.624752E+0	1.672434E+0	1.705273E+0	1.621456E+0	1.687386E+0	1.624464E+0	1.649917E+0	1.704122E+0	1.754049E+0	1.675852E+0	1.618509E+0	1.662913E+0	1.714989E+0	1.675684E+0	1.699916E+0	1.666171E+0	1.660975E+0	1.693450E+0	1.712680E+0	1.750893E+0	1.662087E+0	1.701032E+0	1.715678E+0	1.552614E+0	1.665289E+0	1.714054E+0	1.653199E+0	1.718756E+0	1.729220E+0	1.653254E+0	1.700783E+0	1.699102E+0	1.694125E+0	1.738134E+0	1.674859E+0	1.726362E+0	1.651584E+0	1.641856E+0	1.553566E+0	1.747201E+0	1.605780E+0	1.647342E+0	1.820127E+0	1.635829E+0	1.682719E+0	1.742921E+0	1.717044E+0	1.729804E+0	1.671412E+0	1.728327E+0	1.672178E+0	1.672707E+0	1.718623E+0	1.775992E+0	1.509335E+0	1.788330E+0	1.673620E+0	1.733987E+0	1.738536E+0
2.850010E+2	1.467810E+0	1.432026E+0	1.507264E+0	1.436406E+0	1.451731E+0	1.535211E+0	1.466548E+0	1.591802E+0	1.416848E+0	1.559850E+0	1.423249E+0	1.503356E+0	1.406773E+0	1.472947E+0	1.487274E+0	1.505319E+0	1.457880E+0	1.496807E+0	1.525423E+0	1.410752E+0	1.444678E+0	1.376661E+0	1.440039E+0	1.380043E+0	1.486079E+0	1.478207E+0	1.455448E+0	1.403114E+0	1.469747E+0	1.415678E+0	1.479853E+0	1.360340E+0	1.609892E+0	1.529694E+0	1.480614E+0	1.420632E+0	1.399812E+0	1.435464E+0	1.468800E+0	1.463063E+0	1.511700E+0	1.455555E+0	1.532233E+0	1.371185E+0	1.517729E+0	1.403996E+0	1.485982E+0	1.536490E+0	1.456075E+0	1.472409E+0	1.512899E+0	1.423310E+0	1.409184E+0	1.476922E+0	1.470482E+0	1.392053E+0	1.459716E+0	1.475449E+0	1.518903E+0	1.529973E+0	1.432606E+0	1.452418E+0	1.440329E+0	1.411499E+0	1.486148E+0	1.431425E+0	1.427491E+0	1.484310E+0	1.383363E+0	1.423322E+0	1.452001E+0	1.474007E+0	1.434987E+0	1.414096E+0	1.420419E+0	1.439980E+0	1.540754E+0	1.412889E+0	1.465885E+0	1.419020E+0	1.495816E+0	1.496540E+0	1.417991E+0	1.459691E+0	1.501185E+0	1.463678E+0	1.424263E+0	1.484268E+0	1.461042E+0	1.396688E+0	1.489920E+0	1.391477E+0	1.478027E+0	1.439684E+0	1.529777E+0	1.462713E+0	1.369144E+0	1.427059E+0	1.476685E+0	1.484510E+0	1.436704E+0	1.468173E+0	1.369743E+0	1.460120E+0	1.489499E+0	1.403704E+0	1.457531E+0	1.497645E+0	1.457668E+0	1.521902E+0	1.449258E+0	1.456114E+0	1.454072E+0	1.541057E+0	1.428528E+0	1.454467E+0	1.441096E+0	1.489165E+0	1.422399E+0	1.407671E+0	1.465465E+0	1.409400E+0	1.370169E+0	1.481871E+0	1.388950E+0	1.524994E+0	1.523225E+0	1.388451E+0	1.519416E+0	1.416622E+0	1.480848E+0	1.442668E+0	1.428165E+0	1.408595E+0	1.409414E+0	1.413275E+0	1.470567E+0	1.439438E+0	1.434229E+0	1.470585E+0	1.376582E+0	1.447231E+0	1.479887E+0	1.422894E+0	1.405284E+0	1.440412E+0	1.352718E+0	1.417714E+0	1.425156E+0	1.487971E+0	1.403549E+0	1.477012E+0	1.453566E+0	1.492758E+0	1.480896E+0	1.476938E+0	1.480514E+0	1.475778E+0	1.470937E+0	1.507628E+0	1.510548E+0	1.486674E+0	1.477446E+0	1.493874E+0	1.470734E+0	1.468288E+0	1.458291E+0	1.453970E+0	1.450103E+0	1.578796E+0	1.498813E+0
2.851030E+2	1.441086E+0	1.413687E+0	1.376868E+0	1.303275E+0	1.369924E+0	1.368808E+0	1.339993E+0	1.315910E+0	1.327690E+0	1.309549E+0	1.439627E+0	1.392567E+0	1.356055E+0	1.382125E+0	1.374839E+0	1.303831E+0	1.369965E+0	1.338308E+0	1.325952E+0	1.237451E+0	1.310809E+0	1.365062E+0	1.318600E+0	1.401063E+0	1.360938E+0	1.331047E+0	1.214001E+0	1.377986E+0	1.328638E+0	1.403721E+0	1.441901E+0	1.370135E+0	1.401678E+0	1.316574E+0	1.392141E+0	1.329235E+0	1.331478E+0	1.322634E+0	1.320312E+0	1.269951E+0	1.314515E+0	1.311966E+0	1.331297E+0	1.318998E+0	1.308266E+0	1.342869E+0	1.394582E+0	1.350644E+0	1.293617E+0	1.286681E+0	1.340162E+0	1.316291E+0	1.360491E+0	1.323483E+0	1.350032E+0	1.339554E+0	1.275902E+0	1.323541E+0	1.381077E+0	1.360786E+0	1.314129E+0	1.384882E+0	1.289642E+0	1.371681E+0	1.317560E+0	1.384283E+0	1.339304E+0	1.366514E+0	1.389225E+0	1.296958E+0	1.359959E+0	1.401248E+0	1.324224E+0	1.173040E+0	1.338403E+0	1.272116E+0	1.355041E+0	1.321400E+0	1.284066E+0	1.371325E+0	1.412272E+0	1.320855E+0	1.386277E+0	1.353780E+0	1.337153E+0	1.326294E+0	1.352234E+0	1.317085E+0	1.334462E+0	1.308342E+0	1.344381E+0	1.296942E+0	1.340028E+0	1.361482E+0	1.348065E+0	1.336019E+0	1.293723E+0	1.296822E+0	1.341192E+0	1.328198E+0	1.313250E+0	1.251752E+0	1.377848E+0	1.352693E+0	1.446383E+0	1.335412E+0	1.351594E+0	1.379693E+0	1.380052E+0	1.317122E+0	1.261516E+0	1.360700E+0	1.349205E+0	1.255690E+0	1.296715E+0	1.336934E+0	1.309866E+0	1.379063E+0	1.323098E+0	1.309172E+0	1.371698E+0	1.344879E+0	1.282487E+0	1.387021E+0	1.307561E+0	1.390246E+0	1.328816E+0	1.308691E+0	1.309589E+0	1.297873E+0	1.407114E+0	1.400817E+0	1.354332E+0	1.410354E+0	1.347211E+0	1.351731E+0	1.350285E+0	1.339930E+0	1.323349E+0	1.360875E+0	1.391854E+0	1.276470E+0	1.370306E+0	1.305961E+0	1.359183E+0	1.342313E+0	1.238128E+0	1.374923E+0	1.274427E+0	1.341790E+0	1.294561E+0	1.275943E+0	1.340185E+0	1.297222E+0	1.315050E+0	1.336058E+0	1.243326E+0	1.327271E+0	1.286724E+0	1.320272E+0	1.272152E+0	1.303422E+0	1.344571E+0	1.302383E+0	1.417027E+0	1.392614E+0	1.302517E+0	1.400521E+0	1.252633E+0	1.464616E+0	1.195409E+0
2.852020E+2	1.239376E+0	1.194491E+0	1.184029E+0	1.165175E+0	1.238823E+0	1.267484E+0	1.219021E+0	1.167740E+0	1.235539E+0	1.193476E+0	1.285922E+0	1.210398E+0	1.173184E+0	1.306068E+0	1.218848E+0	1.232801E+0	1.204955E+0	1.226052E+0	1.276538E+0	1.235236E+0	1.184641E+0	1.247467E+0	1.219159E+0	1.177594E+0	1.212614E+0	1.276107E+0	1.243174E+0	1.215553E+0	1.232822E+0	1.194837E+0	1.232217E+0	1.172563E+0	1.226463E+0	1.273378E+0	1.206139E+0	1.103631E+0	1.181120E+0	1.208417E+0	1.209523E+0	1.164575E+0	1.217177E+0	1.207217E+0	1.212865E+0	1.171448E+0	1.231972E+0	1.203552E+0	1.243075E+0	1.241070E+0	1.182147E+0	1.116554E+0	1.243318E+0	1.287095E+0	1.237452E+0	1.203877E+0	1.196984E+0	1.275919E+0	1.214059E+0	1.234181E+0	1.278268E+0	1.169555E+0	1.224905E+0	1.211531E+0	1.199780E+0	1.177225E+0	1.171346E+0	1.232012E+0	1.239469E+0	1.174871E+0	1.219902E+0	1.213771E+0	1.173821E+0	1.291901E+0	1.243995E+0	1.206163E+0	1.176026E+0	1.216194E+0	1.154578E+0	1.222554E+0	1.286101E+0	1.193448E+0	1.210483E+0	1.212710E+0	1.296423E+0	1.169950E+0	1.267399E+0	1.246259E+0	1.233161E+0	1.241151E+0	1.247180E+0	1.249296E+0	1.222600E+0	1.164458E+0	1.164660E+0	1.216264E+0	1.187934E+0	1.247663E+0	1.184585E+0	1.213652E+0	1.190014E+0	1.284494E+0	1.222143E+0	1.253458E+0	1.227289E+0	1.195528E+0	1.228526E+0	1.250400E+0	1.232563E+0	1.277792E+0	1.198742E+0	1.225205E+0	1.245426E+0	1.270599E+0	1.223731E+0	1.219942E+0	1.266704E+0	1.214903E+0	1.159345E+0	1.233153E+0	1.181591E+0	1.248302E+0	1.257263E+0	1.195149E+0	1.098454E+0	1.146899E+0	1.180121E+0	1.206570E+0	1.218702E+0	1.181765E+0	1.313046E+0	1.208973E+0	1.257747E+0	1.242781E+0	1.151118E+0	1.266561E+0	1.184748E+0	1.215205E+0	1.241555E+0	1.236076E+0	1.201660E+0	1.210983E+0	1.210166E+0	1.280030E+0	1.342336E+0	1.242154E+0	1.184538E+0	1.159245E+0	1.198851E+0	1.306047E+0	1.225311E+0	1.253631E+0	1.162187E+0	1.250736E+0	1.274747E+0	1.247520E+0	1.249431E+0	1.178151E+0	1.180527E+0	1.257214E+0	1.202822E+0	1.210462E+0	1.254796E+0	1.276706E+0	1.289776E+0	1.229099E+0	1.186556E+0	1.155504E+0	1.192216E+0	1.260742E+0	1.224705E+0	1.324724E+0	1.113963E+0
2.853020E+2	9.635041E-1	9.438347E-1	9.559474E-1	9.894679E-1	9.871585E-1	9.681243E-1	9.475548E-1	9.574488E-1	9.273221E-1	9.544429E-1	9.520777E-1	9.702263E-1	9.469181E-1	9.606034E-1	1.013386E+0	9.544059E-1	9.283023E-1	9.432942E-1	1.032180E+0	9.338306E-1	9.241875E-1	9.234643E-1	9.615388E-1	9.874621E-1	9.642049E-1	1.004857E+0	9.640023E-1	9.936023E-1	1.006772E+0	9.981641E-1	1.002697E+0	9.846668E-1	1.029643E+0	9.789195E-1	9.452856E-1	9.453417E-1	9.967591E-1	9.758175E-1	9.520138E-1	9.500395E-1	9.630467E-1	1.022231E+0	9.194407E-1	9.216153E-1	9.683500E-1	9.866521E-1	1.004941E+0	9.983370E-1	9.992763E-1	9.248120E-1	9.471904E-1	9.124929E-1	8.878488E-1	9.385458E-1	9.673120E-1	9.340182E-1	8.958854E-1	9.609237E-1	9.809587E-1	9.814752E-1	9.297996E-1	9.640518E-1	9.725563E-1	9.493188E-1	9.346727E-1	9.699495E-1	1.035907E+0	9.764401E-1	9.586467E-1	9.651908E-1	9.671572E-1	9.340731E-1	9.126353E-1	9.295124E-1	9.568677E-1	1.011695E+0	1.015556E+0	9.404829E-1	9.948925E-1	9.231734E-1	9.734572E-1	9.965681E-1	9.780557E-1	9.422183E-1	9.147337E-1	9.200353E-1	9.642658E-1	9.426602E-1	9.542985E-1	9.943450E-1	9.677554E-1	9.467100E-1	9.250537E-1	9.448833E-1	1.053316E+0	9.966256E-1	9.489672E-1	9.066513E-1	9.916348E-1	9.354015E-1	9.578674E-1	9.263500E-1	9.739792E-1	9.939076E-1	9.853119E-1	9.530720E-1	9.538715E-1	9.720847E-1	9.644443E-1	1.000583E+0	9.578681E-1	9.268489E-1	1.103179E+0	9.827789E-1	9.631255E-1	9.794278E-1	9.577132E-1	1.020272E+0	9.714390E-1	9.475900E-1	9.294428E-1	9.364438E-1	9.620206E-1	9.551444E-1	9.117741E-1	9.770658E-1	9.934753E-1	9.566016E-1	9.462052E-1	9.897328E-1	9.495600E-1	9.245112E-1	9.304008E-1	9.780740E-1	9.226831E-1	9.765370E-1	1.007463E+0	9.980960E-1	8.943564E-1	9.794557E-1	9.849844E-1	9.803233E-1	9.475476E-1	9.704791E-1	9.703568E-1	9.291118E-1	9.324415E-1	9.871193E-1	1.025319E+0	9.483610E-1	9.277769E-1	9.751417E-1	9.228669E-1	8.986351E-1	9.498529E-1	9.533225E-1	9.335967E-1	9.449854E-1	1.001999E+0	9.300384E-1	9.661465E-1	1.013726E+0	1.003351E+0	1.035615E+0	9.804224E-1	9.922815E-1	9.564619E-1	1.017260E+0	9.702268E-1	1.038622E+0	1.015350E+0
2.854040E+2	6.106531E-1	6.210417E-1	6.251692E-1	6.615738E-1	6.329098E-1	6.108349E-1	6.759710E-1	6.145895E-1	6.490666E-1	6.637032E-1	6.429917E-1	6.229212E-1	6.681834E-1	6.176680E-1	6.345848E-1	6.470625E-1	6.440673E-1	6.245628E-1	6.685325E-1	6.112554E-1	5.889825E-1	5.830274E-1	6.491214E-1	6.544233E-1	6.578197E-1	6.688099E-1	6.286843E-1	6.781604E-1	7.108055E-1	6.165680E-1	6.351356E-1	6.403438E-1	6.487226E-1	6.329232E-1	6.530298E-1	6.143894E-1	6.236901E-1	5.823708E-1	6.277779E-1	6.575070E-1	5.834044E-1	6.379612E-1	5.997585E-1	6.093236E-1	5.944988E-1	6.187531E-1	6.184537E-1	6.330671E-1	6.451973E-1	6.254260E-1	6.082200E-1	6.353372E-1	6.163128E-1	6.001361E-1	6.119972E-1	6.584633E-1	6.186918E-1	6.041375E-1	6.198620E-1	6.287943E-1	6.034448E-1	6.570228E-1	6.456526E-1	6.731864E-1	6.270961E-1	6.243200E-1	6.010847E-1	6.528633E-1	6.338621E-1	6.256111E-1	6.342549E-1	6.765943E-1	6.319955E-1	6.527715E-1	6.106093E-1	6.484324E-1	6.132069E-1	6.572339E-1	6.939611E-1	6.313018E-1	6.690162E-1	6.051706E-1	6.607748E-1	6.508098E-1	6.659501E-1	6.092221E-1	5.994495E-1	5.946654E-1	6.723748E-1	6.490170E-1	6.782862E-1	6.497170E-1	6.297444E-1	6.196359E-1	6.393518E-1	6.152183E-1	7.040423E-1	6.199831E-1	6.162326E-1	5.971126E-1	6.548699E-1	6.529087E-1	5.864072E-1	6.431527E-1	6.672421E-1	5.955143E-1	6.689408E-1	6.596851E-1	6.549005E-1	6.811536E-1	6.400575E-1	6.203750E-1	6.077773E-1	6.219944E-1	6.027480E-1	6.372961E-1	6.741879E-1	6.336507E-1	6.414713E-1	6.326344E-1	6.520783E-1	5.980785E-1	5.953651E-1	6.171886E-1	6.281023E-1	6.618498E-1	6.334672E-1	6.462912E-1	6.352120E-1	6.339805E-1	6.183713E-1	6.510807E-1	6.460308E-1	6.306005E-1	5.770022E-1	6.281312E-1	6.231426E-1	6.336948E-1	6.189061E-1	6.711995E-1	6.345533E-1	6.262405E-1	6.748291E-1	6.413440E-1	5.901045E-1	6.628394E-1	6.305896E-1	6.549962E-1	6.687102E-1	6.367166E-1	6.652627E-1	5.881528E-1	6.803808E-1	6.387945E-1	6.282450E-1	6.446527E-1	6.503794E-1	6.200136E-1	6.641292E-1	6.493987E-1	6.553061E-1	6.757484E-1	6.581426E-1	6.557394E-1	6.406041E-1	6.815408E-1	6.619568E-1	6.528033E-1	6.135236E-1	5.772780E-1	6.106116E-1
2.855030E+2	4.529149E-1	4.487925E-1	4.437592E-1	4.579887E-1	4.847465E-1	4.487546E-1	4.881192E-1	4.943923E-1	4.750609E-1	4.886287E-1	4.834028E-1	4.456675E-1	4.818781E-1	4.961970E-1	4.910056E-1	4.562664E-1	4.587553E-1	4.986399E-1	4.929794E-1	4.699191E-1	4.631438E-1	4.433482E-1	4.561399E-1	4.832866E-1	5.353456E-1	4.965791E-1	4.746182E-1	4.631473E-1	5.050514E-1	4.629648E-1	4.901751E-1	4.769514E-1	4.702034E-1	4.647931E-1	5.038057E-1	4.515716E-1	4.576997E-1	4.373779E-1	4.400822E-1	4.827070E-1	4.529286E-1	4.843816E-1	4.701686E-1	4.415124E-1	4.746325E-1	5.301084E-1	4.721357E-1	5.099538E-1	4.699825E-1	4.937764E-1	4.813358E-1	4.676760E-1	4.685305E-1	4.338603E-1	4.488013E-1	4.751462E-1	3.854833E-1	4.504175E-1	4.515205E-1	5.013721E-1	4.953894E-1	4.558270E-1	4.987865E-1	5.053950E-1	4.577797E-1	4.685284E-1	4.921856E-1	5.174968E-1	4.692218E-1	4.395910E-1	4.858917E-1	4.450849E-1	4.767744E-1	4.416045E-1	4.616447E-1	5.066289E-1	4.447031E-1	4.386525E-1	4.596171E-1	4.454101E-1	4.744989E-1	4.606229E-1	4.907827E-1	4.827955E-1	4.575701E-1	4.551724E-1	4.859167E-1	4.332975E-1	4.995017E-1	4.696853E-1	4.899582E-1	4.142728E-1	4.308732E-1	4.835545E-1	5.131184E-1	4.744575E-1	4.548351E-1	4.461710E-1	4.306819E-1	4.930836E-1	4.257539E-1	4.591321E-1	4.552636E-1	5.190412E-1	4.600372E-1	4.877869E-1	5.086779E-1	4.694969E-1	4.561681E-1	5.201594E-1	4.669045E-1	5.156973E-1	4.705072E-1	4.779679E-1	4.235877E-1	4.711987E-1	4.940454E-1	4.598376E-1	4.851764E-1	4.620457E-1	4.544367E-1	4.926206E-1	4.662015E-1	4.762049E-1	4.557492E-1	4.515704E-1	4.107204E-1	4.825430E-1	4.562165E-1	4.777480E-1	4.915741E-1	5.246079E-1	5.247449E-1	4.994532E-1	4.228684E-1	4.615259E-1	4.796337E-1	5.174714E-1	4.558235E-1	4.803268E-1	4.429315E-1	4.959069E-1	4.437529E-1	4.536136E-1	4.586926E-1	4.637398E-1	4.713990E-1	4.807470E-1	4.996915E-1	4.368300E-1	4.886397E-1	4.630180E-1	4.894262E-1	4.941845E-1	4.838932E-1	5.276545E-1	4.809939E-1	4.758438E-1	4.759694E-1	4.749171E-1	4.746755E-1	4.740001E-1	4.936054E-1	4.985151E-1	4.689894E-1	5.211461E-1	4.526061E-1	4.604732E-1	4.251485E-1	4.832794E-1	4.245053E-1
2.856030E+2	4.031885E-1	4.471514E-1	4.229548E-1	4.148298E-1	4.989776E-1	4.187897E-1	3.803382E-1	4.272461E-1	4.430408E-1	4.570938E-1	4.339664E-1	4.300081E-1	4.075281E-1	4.798873E-1	4.320940E-1	4.560812E-1	4.551544E-1	4.332001E-1	4.559351E-1	4.268403E-1	4.227210E-1	4.206028E-1	4.270952E-1	4.095360E-1	4.915301E-1	4.486879E-1	4.735135E-1	4.206884E-1	4.131410E-1	4.312374E-1	4.491853E-1	4.338707E-1	3.990273E-1	4.009093E-1	4.464773E-1	4.174332E-1	4.526693E-1	4.333708E-1	4.532775E-1	4.487193E-1	3.991017E-1	4.625137E-1	4.062089E-1	4.143245E-1	4.008774E-1	4.537446E-1	4.256177E-1	4.014029E-1	4.094108E-1	3.909069E-1	4.635753E-1	4.145176E-1	4.296314E-1	4.408824E-1	4.164408E-1	4.548513E-1	4.076042E-1	4.503275E-1	4.026353E-1	4.506972E-1	4.246225E-1	4.702424E-1	4.673426E-1	4.205434E-1	4.720288E-1	4.754373E-1	4.211662E-1	4.270134E-1	4.157717E-1	3.913668E-1	4.204736E-1	4.257084E-1	4.495522E-1	4.491293E-1	4.453505E-1	4.600848E-1	4.080402E-1	4.406306E-1	4.685856E-1	4.274091E-1	4.486515E-1	4.211008E-1	4.360844E-1	4.320047E-1	4.078959E-1	4.113174E-1	4.517245E-1	4.659559E-1	4.321961E-1	4.275549E-1	4.318718E-1	4.379900E-1	4.353179E-1	4.522507E-1	4.446721E-1	4.334106E-1	4.386224E-1	4.428833E-1	4.397158E-1	4.650394E-1	3.973437E-1	4.494218E-1	4.386793E-1	4.289659E-1	4.295317E-1	4.247375E-1	4.530277E-1	4.607404E-1	4.572545E-1	4.281913E-1	4.456347E-1	4.192680E-1	3.997318E-1	4.455130E-1	4.108315E-1	4.081909E-1	4.405638E-1	4.173942E-1	4.416537E-1	4.232719E-1	4.592711E-1	4.560169E-1	4.438314E-1	4.331535E-1	4.208003E-1	4.236615E-1	3.897820E-1	4.730330E-1	4.306792E-1	4.708105E-1	4.339261E-1	4.065509E-1	4.243248E-1	4.638579E-1	4.280214E-1	4.218986E-1	4.269408E-1	4.063790E-1	4.409602E-1	4.102835E-1	4.474802E-1	4.132029E-1	4.199053E-1	4.785560E-1	4.151799E-1	4.064459E-1	4.538901E-1	4.393157E-1	4.069332E-1	4.736348E-1	4.318581E-1	4.382810E-1	4.124733E-1	4.275050E-1	4.223453E-1	4.926353E-1	4.282424E-1	4.527736E-1	4.117826E-1	4.292158E-1	4.447627E-1	4.193418E-1	4.141572E-1	4.871350E-1	3.977467E-1	4.655472E-1	4.525703E-1	4.737942E-1	4.191067E-1	4.756006E-1	3.722265E-1
2.858060E+2	5.067217E-1	5.016383E-1	4.903880E-1	4.650995E-1	5.255925E-1	4.738403E-1	5.022228E-1	4.476973E-1	5.148282E-1	5.088461E-1	4.511782E-1	4.883465E-1	4.986369E-1	4.630208E-1	4.696637E-1	4.767980E-1	5.008435E-1	4.848111E-1	4.883563E-1	4.676137E-1	4.768278E-1	4.553233E-1	4.724702E-1	4.555656E-1	4.555624E-1	4.896106E-1	4.657697E-1	4.783810E-1	5.142017E-1	4.685486E-1	5.002159E-1	4.736914E-1	5.162945E-1	5.140563E-1	4.829369E-1	4.482326E-1	5.134639E-1	4.943161E-1	4.462633E-1	4.393172E-1	4.452331E-1	4.766365E-1	4.130726E-1	4.396140E-1	4.669872E-1	4.959473E-1	4.572917E-1	4.585143E-1	5.003790E-1	4.767275E-1	4.704686E-1	4.682794E-1	4.579625E-1	5.213163E-1	4.887612E-1	4.922287E-1	4.618052E-1	4.825960E-1	4.907618E-1	4.477781E-1	4.426345E-1	4.772209E-1	4.643531E-1	4.963482E-1	4.867702E-1	5.025827E-1	4.789799E-1	4.728368E-1	4.684150E-1	4.448735E-1	5.044319E-1	4.936100E-1	4.575789E-1	4.753104E-1	4.836888E-1	4.570710E-1	4.616799E-1	4.531152E-1	4.497592E-1	4.997559E-1	4.970166E-1	4.151192E-1	4.621001E-1	4.611775E-1	4.793807E-1	4.669633E-1	4.758096E-1	4.684268E-1	4.565260E-1	4.798425E-1	4.710394E-1	5.037512E-1	4.760874E-1	4.816800E-1	4.854510E-1	5.155784E-1	4.973346E-1	4.638163E-1	4.911838E-1	4.559769E-1	5.195091E-1	4.777776E-1	5.031146E-1	4.578251E-1	5.105818E-1	5.058129E-1	4.536137E-1	5.117128E-1	5.039355E-1	4.564041E-1	4.329544E-1	4.857974E-1	4.459027E-1	4.782696E-1	4.607771E-1	4.639829E-1	4.919675E-1	4.737082E-1	4.636199E-1	4.588505E-1	4.614865E-1	4.658953E-1	4.827829E-1	4.549357E-1	4.785899E-1	5.242223E-1	4.924588E-1	4.481071E-1	4.718885E-1	4.768548E-1	4.967990E-1	4.901551E-1	4.567568E-1	4.955814E-1	4.799101E-1	4.698923E-1	4.752002E-1	4.945075E-1	4.898105E-1	4.747996E-1	4.515819E-1	5.107142E-1	5.199413E-1	4.633947E-1	4.892154E-1	4.718563E-1	4.809350E-1	4.554768E-1	5.163272E-1	4.789848E-1	4.848237E-1	5.090202E-1	5.115792E-1	4.464433E-1	4.843896E-1	4.457314E-1	4.888355E-1	4.555810E-1	4.771670E-1	5.115430E-1	4.446859E-1	4.636229E-1	4.672063E-1	4.666592E-1	4.952599E-1	4.626717E-1	4.718696E-1	5.039007E-1	5.170109E-1	4.920840E-1	5.019806E-1
2.860070E+2	6.792067E-1	7.077269E-1	7.533480E-1	7.706652E-1	7.071698E-1	7.742377E-1	7.420812E-1	7.118839E-1	7.209549E-1	7.157670E-1	7.251476E-1	7.269581E-1	7.187712E-1	7.025859E-1	7.330523E-1	7.178697E-1	7.438639E-1	7.064192E-1	7.155844E-1	6.934775E-1	7.188783E-1	6.823959E-1	6.725233E-1	7.218997E-1	7.293227E-1	7.119590E-1	7.281565E-1	6.848681E-1	7.642061E-1	7.466872E-1	7.330735E-1	7.306412E-1	7.260082E-1	7.253599E-1	7.188842E-1	6.691739E-1	7.458067E-1	7.303355E-1	7.435514E-1	7.318651E-1	6.728215E-1	7.949717E-1	6.877556E-1	7.958266E-1	6.998368E-1	7.366919E-1	7.404052E-1	6.812993E-1	7.285761E-1	7.018067E-1	7.800714E-1	7.187273E-1	7.220501E-1	6.848031E-1	6.721786E-1	6.291503E-1	6.798303E-1	7.543791E-1	7.376569E-1	7.491942E-1	6.911315E-1	7.384613E-1	6.657618E-1	7.086787E-1	7.224714E-1	7.290667E-1	7.550502E-1	7.223825E-1	6.899367E-1	7.917979E-1	6.431677E-1	7.543140E-1	7.209076E-1	6.654212E-1	7.082874E-1	7.522973E-1	6.774739E-1	7.288183E-1	7.692990E-1	6.956196E-1	7.813861E-1	6.902365E-1	7.354888E-1	7.436063E-1	7.179005E-1	7.245499E-1	7.195856E-1	7.043346E-1	7.111706E-1	7.058961E-1	7.549017E-1	7.104460E-1	6.979405E-1	6.756633E-1	7.057284E-1	7.767828E-1	7.226912E-1	6.903187E-1	7.436035E-1	7.246464E-1	7.280289E-1	7.313280E-1	7.154580E-1	7.019848E-1	7.052593E-1	7.596726E-1	7.231121E-1	7.544382E-1	7.620200E-1	7.077282E-1	7.551098E-1	7.262021E-1	7.143862E-1	7.254086E-1	7.058757E-1	7.155176E-1	7.233379E-1	7.477473E-1	6.997086E-1	7.520458E-1	7.149517E-1	7.115955E-1	7.396089E-1	6.937537E-1	7.486870E-1	7.477204E-1	7.491451E-1	7.290782E-1	6.933121E-1	7.380866E-1	7.458328E-1	6.927245E-1	7.166469E-1	7.413674E-1	7.058773E-1	6.755146E-1	6.518718E-1	7.439192E-1	5.998489E-1	7.279216E-1	7.317673E-1	7.028721E-1	7.576482E-1	7.361408E-1	7.036536E-1	7.217569E-1	6.603402E-1	7.782097E-1	7.773742E-1	7.184445E-1	7.069089E-1	7.262338E-1	7.609492E-1	7.777876E-1	7.399791E-1	7.096216E-1	7.069577E-1	7.052718E-1	7.259668E-1	7.196756E-1	7.837580E-1	7.752462E-1	7.500150E-1	7.572240E-1	7.151679E-1	7.192358E-1	7.093616E-1	8.038900E-1	7.416329E-1	7.658760E-1	9.005027E-1
2.862030E+2	9.542354E-1	1.048349E+0	1.010131E+0	9.335928E-1	1.056743E+0	1.034471E+0	1.078567E+0	9.826534E-1	9.988789E-1	1.020526E+0	9.685321E-1	1.019407E+0	1.070742E+0	1.047033E+0	1.007009E+0	1.038920E+0	1.076733E+0	1.027917E+0	9.842456E-1	1.039530E+0	1.003261E+0	9.789488E-1	1.034715E+0	9.871806E-1	1.011677E+0	1.022960E+0	1.016360E+0	1.002475E+0	9.887039E-1	9.722124E-1	1.002843E+0	1.037728E+0	1.011836E+0	9.692672E-1	9.626260E-1	1.030404E+0	1.009640E+0	9.898630E-1	9.583935E-1	1.021173E+0	1.046313E+0	1.051028E+0	1.015908E+0	1.040068E+0	9.971432E-1	1.017491E+0	1.019604E+0	1.013738E+0	1.134627E+0	1.051005E+0	9.753423E-1	9.564822E-1	1.005593E+0	1.025505E+0	9.961375E-1	1.022109E+0	1.004237E+0	1.021200E+0	1.029471E+0	9.947733E-1	9.741470E-1	1.007645E+0	9.845190E-1	1.040588E+0	1.031729E+0	1.015848E+0	9.982050E-1	9.446485E-1	9.933295E-1	9.760812E-1	1.008800E+0	1.041751E+0	9.807624E-1	9.634624E-1	1.007091E+0	1.022572E+0	1.017250E+0	1.008065E+0	1.029758E+0	1.064446E+0	1.044803E+0	1.007586E+0	1.019607E+0	1.033792E+0	1.066848E+0	9.975018E-1	1.003923E+0	1.035351E+0	9.965544E-1	1.014386E+0	1.013252E+0	1.072537E+0	1.071556E+0	1.016687E+0	1.067640E+0	9.991448E-1	9.886935E-1	1.005800E+0	1.018325E+0	9.979210E-1	1.027465E+0	1.032664E+0	1.004027E+0	1.018512E+0	1.071598E+0	1.034166E+0	1.006624E+0	1.083272E+0	1.005738E+0	9.771236E-1	9.924609E-1	1.054466E+0	9.889944E-1	1.026116E+0	1.020352E+0	1.031440E+0	9.985118E-1	1.046931E+0	1.056722E+0	1.030750E+0	1.006025E+0	9.854054E-1	1.021150E+0	9.997005E-1	1.011540E+0	1.030806E+0	1.044406E+0	9.926885E-1	1.013283E+0	1.089337E+0	9.410712E-1	1.032694E+0	1.059606E+0	9.934096E-1	1.040661E+0	9.866602E-1	1.059267E+0	1.039114E+0	9.887367E-1	1.029579E+0	1.075086E+0	1.029644E+0	1.062924E+0	9.866424E-1	1.038832E+0	1.035675E+0	1.008702E+0	1.036676E+0	1.023407E+0	1.068270E+0	1.013437E+0	1.010849E+0	1.006626E+0	1.036737E+0	1.028364E+0	1.061197E+0	9.510403E-1	1.025780E+0	1.082004E+0	9.965340E-1	1.057083E+0	1.039348E+0	1.065716E+0	9.876167E-1	1.022885E+0	1.000744E+0	9.609241E-1	1.014800E+0	1.069191E+0	9.742879E-1	1.042104E+0
2.864030E+2	1.193724E+0	1.282029E+0	1.285128E+0	1.233265E+0	1.302968E+0	1.324002E+0	1.288882E+0	1.290538E+0	1.296255E+0	1.223884E+0	1.322889E+0	1.285311E+0	1.258791E+0	1.239603E+0	1.251273E+0	1.300234E+0	1.202590E+0	1.298813E+0	1.304435E+0	1.218287E+0	1.281932E+0	1.295206E+0	1.192283E+0	1.264032E+0	1.244051E+0	1.269960E+0	1.241341E+0	1.289349E+0	1.386869E+0	1.265140E+0	1.262631E+0	1.301589E+0	1.324212E+0	1.293748E+0	1.209286E+0	1.283151E+0	1.215862E+0	1.217830E+0	1.246362E+0	1.233233E+0	1.294340E+0	1.306835E+0	1.234636E+0	1.220043E+0	1.209670E+0	1.296013E+0	1.254736E+0	1.271675E+0	1.294054E+0	1.249198E+0	1.250860E+0	1.247439E+0	1.188892E+0	1.227039E+0	1.241773E+0	1.252645E+0	1.264830E+0	1.188067E+0	1.242811E+0	1.252670E+0	1.230800E+0	1.197980E+0	1.236454E+0	1.260610E+0	1.244752E+0	1.261441E+0	1.271769E+0	1.260081E+0	1.286072E+0	1.256223E+0	1.213501E+0	1.309932E+0	1.318888E+0	1.249552E+0	1.261845E+0	1.232015E+0	1.281699E+0	1.186929E+0	1.266046E+0	1.316305E+0	1.347510E+0	1.278414E+0	1.228335E+0	1.306923E+0	1.205417E+0	1.218525E+0	1.265168E+0	1.193074E+0	1.268140E+0	1.278157E+0	1.297067E+0	1.290719E+0	1.241638E+0	1.295326E+0	1.306151E+0	1.288113E+0	1.284551E+0	1.243077E+0	1.246574E+0	1.179188E+0	1.196807E+0	1.276379E+0	1.269875E+0	1.266089E+0	1.320459E+0	1.314492E+0	1.285119E+0	1.275234E+0	1.239097E+0	1.313920E+0	1.286231E+0	1.260470E+0	1.248981E+0	1.240147E+0	1.218812E+0	1.261122E+0	1.196242E+0	1.319657E+0	1.276362E+0	1.306659E+0	1.361766E+0	1.317439E+0	1.278147E+0	1.272880E+0	1.284884E+0	1.255456E+0	1.240420E+0	1.258814E+0	1.226531E+0	1.287767E+0	1.275567E+0	1.240399E+0	1.244675E+0	1.247583E+0	1.200824E+0	1.241299E+0	1.403942E+0	1.219942E+0	1.212220E+0	1.309734E+0	1.322424E+0	1.230640E+0	1.274461E+0	1.209478E+0	1.267002E+0	1.272790E+0	1.253587E+0	1.279602E+0	1.170475E+0	1.223224E+0	1.203366E+0	1.316766E+0	1.294657E+0	1.281913E+0	1.243904E+0	1.247995E+0	1.249417E+0	1.233673E+0	1.320798E+0	1.296218E+0	1.288362E+0	1.232370E+0	1.252943E+0	1.265530E+0	1.241057E+0	1.292513E+0	1.294890E+0	1.328022E+0	1.342096E+0	1.355570E+0	1.307487E+0
2.866200E+2	1.298262E+0	1.379662E+0	1.254897E+0	1.278357E+0	1.310675E+0	1.392673E+0	1.303538E+0	1.292718E+0	1.360928E+0	1.333094E+0	1.297307E+0	1.373247E+0	1.320388E+0	1.295311E+0	1.336995E+0	1.299879E+0	1.354014E+0	1.296676E+0	1.261415E+0	1.343670E+0	1.281557E+0	1.314532E+0	1.325690E+0	1.347264E+0	1.334457E+0	1.279645E+0	1.286700E+0	1.341121E+0	1.391185E+0	1.283984E+0	1.308886E+0	1.350402E+0	1.304310E+0	1.382129E+0	1.271837E+0	1.327114E+0	1.338218E+0	1.286607E+0	1.290822E+0	1.299613E+0	1.350794E+0	1.320283E+0	1.298633E+0	1.307371E+0	1.254221E+0	1.324905E+0	1.322804E+0	1.327338E+0	1.229155E+0	1.323151E+0	1.314588E+0	1.326960E+0	1.252699E+0	1.377425E+0	1.301298E+0	1.167878E+0	1.359572E+0	1.273448E+0	1.361007E+0	1.308628E+0	1.281629E+0	1.270921E+0	1.328622E+0	1.344806E+0	1.389145E+0	1.301864E+0	1.359851E+0	1.324998E+0	1.333970E+0	1.310563E+0	1.297299E+0	1.375571E+0	1.348389E+0	1.288162E+0	1.299685E+0	1.302198E+0	1.349258E+0	1.317082E+0	1.274066E+0	1.340348E+0	1.332031E+0	1.376264E+0	1.365197E+0	1.276216E+0	1.270258E+0	1.338707E+0	1.367525E+0	1.393922E+0	1.347316E+0	1.260445E+0	1.311684E+0	1.440416E+0	1.336505E+0	1.278629E+0	1.276092E+0	1.381440E+0	1.278447E+0	1.298452E+0	1.239872E+0	1.274651E+0	1.337114E+0	1.330347E+0	1.226654E+0	1.376176E+0	1.370841E+0	1.275062E+0	1.299187E+0	1.254023E+0	1.283197E+0	1.345030E+0	1.331815E+0	1.287347E+0	1.294923E+0	1.302663E+0	1.273826E+0	1.300362E+0	1.324348E+0	1.380363E+0	1.276295E+0	1.340493E+0	1.353716E+0	1.261340E+0	1.283526E+0	1.339722E+0	1.306750E+0	1.317195E+0	1.318364E+0	1.361969E+0	1.270659E+0	1.359750E+0	1.259407E+0	1.338184E+0	1.329158E+0	1.387956E+0	1.296405E+0	1.355341E+0	1.371810E+0	1.228595E+0	1.334650E+0	1.339602E+0	1.381077E+0	1.333598E+0	1.316805E+0	1.313068E+0	1.314522E+0	1.293775E+0	1.340414E+0	1.331704E+0	1.389667E+0	1.357178E+0	1.257724E+0	1.316400E+0	1.308578E+0	1.317966E+0	1.381707E+0	1.327790E+0	1.319724E+0	1.284283E+0	1.327896E+0	1.350835E+0	1.285994E+0	1.367740E+0	1.332403E+0	1.354438E+0	1.322403E+0	1.281854E+0	1.286620E+0	1.382934E+0	1.422481E+0	1.332890E+0	1.253061E+0
2.868030E+2	1.545826E+0	1.611265E+0	1.618286E+0	1.568143E+0	1.572637E+0	1.578736E+0	1.647606E+0	1.555220E+0	1.540348E+0	1.580820E+0	1.556185E+0	1.630123E+0	1.635075E+0	1.650993E+0	1.585250E+0	1.611849E+0	1.616030E+0	1.608401E+0	1.612412E+0	1.615220E+0	1.560365E+0	1.563374E+0	1.555637E+0	1.518391E+0	1.598733E+0	1.601656E+0	1.523379E+0	1.678876E+0	1.568255E+0	1.519347E+0	1.598279E+0	1.622528E+0	1.479481E+0	1.600392E+0	1.531835E+0	1.474044E+0	1.563339E+0	1.525637E+0	1.551485E+0	1.563740E+0	1.510096E+0	1.625838E+0	1.607677E+0	1.510094E+0	1.518488E+0	1.590627E+0	1.602646E+0	1.568236E+0	1.534279E+0	1.511317E+0	1.561113E+0	1.546426E+0	1.582602E+0	1.606540E+0	1.533383E+0	1.499186E+0	1.558744E+0	1.542139E+0	1.580600E+0	1.546922E+0	1.602674E+0	1.517672E+0	1.567096E+0	1.577220E+0	1.584112E+0	1.515989E+0	1.604583E+0	1.602523E+0	1.528013E+0	1.529689E+0	1.527051E+0	1.561178E+0	1.559103E+0	1.550752E+0	1.529828E+0	1.552180E+0	1.590297E+0	1.542342E+0	1.552674E+0	1.610126E+0	1.615209E+0	1.563634E+0	1.585442E+0	1.578942E+0	1.571420E+0	1.530647E+0	1.521256E+0	1.497964E+0	1.627484E+0	1.567101E+0	1.591971E+0	1.551979E+0	1.639283E+0	1.622913E+0	1.642790E+0	1.601153E+0	1.521327E+0	1.555229E+0	1.505088E+0	1.480192E+0	1.605999E+0	1.493939E+0	1.574431E+0	1.584215E+0	1.591460E+0	1.490032E+0	1.512631E+0	1.644047E+0	1.523930E+0	1.542480E+0	1.596399E+0	1.610474E+0	1.439713E+0	1.588793E+0	1.623462E+0	1.552967E+0	1.484789E+0	1.581608E+0	1.525065E+0	1.580315E+0	1.642907E+0	1.568921E+0	1.616159E+0	1.513477E+0	1.485118E+0	1.661277E+0	1.516420E+0	1.515330E+0	1.544619E+0	1.586903E+0	1.534816E+0	1.604126E+0	1.503712E+0	1.529113E+0	1.503937E+0	1.650234E+0	1.566692E+0	1.557718E+0	1.517098E+0	1.606309E+0	1.537409E+0	1.570189E+0	1.533068E+0	1.551104E+0	1.551010E+0	1.501963E+0	1.545534E+0	1.613722E+0	1.531116E+0	1.532864E+0	1.534963E+0	1.624132E+0	1.588716E+0	1.584669E+0	1.641633E+0	1.583579E+0	1.568441E+0	1.572123E+0	1.539830E+0	1.601311E+0	1.525042E+0	1.595760E+0	1.435990E+0	1.519919E+0	1.619251E+0	1.552566E+0	1.547517E+0	1.683385E+0	1.594061E+0	1.586691E+0	1.622783E+0
2.870190E+2	1.359696E+0	1.295527E+0	1.278119E+0	1.210602E+0	1.279339E+0	1.277754E+0	1.341174E+0	1.372678E+0	1.275221E+0	1.384778E+0	1.309294E+0	1.273740E+0	1.339291E+0	1.217462E+0	1.275116E+0	1.299291E+0	1.265054E+0	1.390235E+0	1.274612E+0	1.313706E+0	1.328550E+0	1.257231E+0	1.210809E+0	1.240173E+0	1.305782E+0	1.324891E+0	1.249385E+0	1.303831E+0	1.324413E+0	1.259555E+0	1.307340E+0	1.325171E+0	1.318501E+0	1.265853E+0	1.257108E+0	1.266561E+0	1.285632E+0	1.311648E+0	1.221550E+0	1.270786E+0	1.283370E+0	1.352620E+0	1.257681E+0	1.200297E+0	1.384692E+0	1.324182E+0	1.244080E+0	1.290042E+0	1.199301E+0	1.275406E+0	1.249171E+0	1.355058E+0	1.245128E+0	1.256575E+0	1.266041E+0	1.265393E+0	1.253365E+0	1.272328E+0	1.294486E+0	1.325699E+0	1.285931E+0	1.242896E+0	1.296536E+0	1.290998E+0	1.315608E+0	1.309313E+0	1.265898E+0	1.263359E+0	1.343411E+0	1.239719E+0	1.195470E+0	1.255167E+0	1.311545E+0	1.239032E+0	1.190745E+0	1.293742E+0	1.294697E+0	1.236623E+0	1.223069E+0	1.302650E+0	1.402827E+0	1.295748E+0	1.318234E+0	1.244190E+0	1.252221E+0	1.232508E+0	1.300974E+0	1.199005E+0	1.323111E+0	1.274737E+0	1.268198E+0	1.226114E+0	1.216732E+0	1.231532E+0	1.307353E+0	1.251537E+0	1.190699E+0	1.265575E+0	1.237510E+0	1.180015E+0	1.292586E+0	1.264884E+0	1.271560E+0	1.229303E+0	1.346377E+0	1.271285E+0	1.273632E+0	1.250397E+0	1.227454E+0	1.271110E+0	1.205051E+0	1.330787E+0	1.248722E+0	1.326784E+0	1.248091E+0	1.207126E+0	1.241247E+0	1.243702E+0	1.310326E+0	1.285992E+0	1.322578E+0	1.262413E+0	1.232219E+0	1.214430E+0	1.190431E+0	1.308107E+0	1.319051E+0	1.268882E+0	1.309533E+0	1.304206E+0	1.334627E+0	1.170893E+0	1.252214E+0	1.217901E+0	1.317026E+0	1.295604E+0	1.321111E+0	1.203152E+0	1.329465E+0	1.261516E+0	1.277878E+0	1.303716E+0	1.325484E+0	1.301066E+0	1.220224E+0	1.223403E+0	1.275061E+0	1.304587E+0	1.277349E+0	1.320650E+0	1.234546E+0	1.275231E+0	1.362144E+0	1.248757E+0	1.274071E+0	1.231658E+0	1.231805E+0	1.326435E+0	1.303383E+0	1.335584E+0	1.291267E+0	1.357399E+0	1.225731E+0	1.308079E+0	1.237025E+0	1.343427E+0	1.233402E+0	1.384857E+0	1.307984E+0	1.274839E+0	1.293351E+0
2.872140E+2	1.046859E+0	1.107829E+0	1.030730E+0	1.031006E+0	1.069198E+0	1.059865E+0	1.048895E+0	1.053199E+0	1.077688E+0	1.138515E+0	1.066930E+0	1.032037E+0	1.019653E+0	1.097730E+0	1.021157E+0	1.056033E+0	1.033152E+0	1.065603E+0	1.087663E+0	1.045713E+0	1.049118E+0	1.032024E+0	1.071358E+0	1.078469E+0	1.079497E+0	1.070706E+0	1.035258E+0	1.052748E+0	1.020376E+0	1.081000E+0	1.142592E+0	1.114050E+0	1.122794E+0	1.018962E+0	9.890324E-1	1.006371E+0	1.057864E+0	1.100616E+0	1.021285E+0	1.019331E+0	1.056022E+0	1.065675E+0	1.057618E+0	9.799342E-1	1.018267E+0	1.056096E+0	1.062741E+0	1.092163E+0	1.115768E+0	1.044058E+0	1.064421E+0	9.821267E-1	1.022407E+0	1.017456E+0	1.043648E+0	1.009778E+0	1.085013E+0	1.058920E+0	1.023853E+0	1.056778E+0	1.058994E+0	1.052732E+0	1.031574E+0	1.011246E+0	1.113545E+0	1.018370E+0	1.017093E+0	1.031120E+0	1.041085E+0	1.071144E+0	1.019859E+0	1.074131E+0	1.035490E+0	1.077392E+0	1.020710E+0	1.026864E+0	1.056031E+0	1.088554E+0	1.068442E+0	1.026577E+0	1.061762E+0	1.127640E+0	1.031408E+0	1.035768E+0	1.029489E+0	1.049331E+0	1.021756E+0	1.028804E+0	1.012865E+0	1.001192E+0	1.054773E+0	1.026578E+0	1.003182E+0	9.982334E-1	1.059977E+0	1.046171E+0	1.046360E+0	1.003711E+0	1.016097E+0	1.052878E+0	1.048619E+0	1.045635E+0	1.043151E+0	1.072178E+0	1.096192E+0	1.109909E+0	1.010465E+0	1.035260E+0	1.035574E+0	1.043736E+0	1.087734E+0	1.025845E+0	1.088569E+0	1.045003E+0	9.950395E-1	1.003462E+0	1.012066E+0	1.068115E+0	1.022422E+0	1.052108E+0	1.108445E+0	1.076921E+0	1.088578E+0	1.050489E+0	9.834423E-1	1.068010E+0	1.059832E+0	1.030683E+0	1.052982E+0	1.081454E+0	1.027569E+0	9.964223E-1	1.039056E+0	1.105228E+0	1.039619E+0	1.067771E+0	1.103787E+0	1.023801E+0	1.033201E+0	1.070801E+0	1.004548E+0	1.053140E+0	1.040270E+0	1.089076E+0	1.104248E+0	9.761617E-1	1.033624E+0	1.105762E+0	1.097693E+0	1.014271E+0	1.003529E+0	1.046922E+0	1.076138E+0	9.453205E-1	9.900834E-1	1.057860E+0	1.049236E+0	1.052482E+0	1.023730E+0	1.057386E+0	1.056777E+0	1.068661E+0	1.094428E+0	1.013835E+0	1.070455E+0	1.118382E+0	9.804920E-1	1.107704E+0	1.019392E+0	1.001997E+0	1.091461E+0
2.874030E+2	9.053418E-1	9.539641E-1	1.010084E+0	9.574626E-1	9.060636E-1	9.409252E-1	9.233034E-1	9.397094E-1	9.328986E-1	9.186286E-1	9.553128E-1	9.698799E-1	9.457378E-1	9.855512E-1	9.776823E-1	9.443367E-1	9.946012E-1	9.567351E-1	9.842401E-1	9.638773E-1	9.065513E-1	9.136632E-1	9.417166E-1	9.739742E-1	1.030523E+0	9.851754E-1	9.477921E-1	9.688559E-1	9.721740E-1	9.529477E-1	9.513499E-1	9.352726E-1	8.917818E-1	9.366975E-1	9.721554E-1	9.813117E-1	9.357161E-1	9.917967E-1	8.948052E-1	9.131956E-1	9.267710E-1	9.963679E-1	9.866071E-1	1.016230E+0	9.498068E-1	9.301361E-1	9.419445E-1	9.745267E-1	9.692822E-1	9.488061E-1	9.130785E-1	9.580956E-1	9.706143E-1	9.014952E-1	9.573496E-1	9.845639E-1	9.392672E-1	9.908576E-1	9.723164E-1	9.976369E-1	9.755269E-1	1.001155E+0	9.473587E-1	9.434385E-1	9.576754E-1	9.652345E-1	9.625579E-1	1.053426E+0	9.836987E-1	1.020168E+0	9.259121E-1	9.080635E-1	9.491999E-1	1.006859E+0	1.004113E+0	9.622746E-1	9.186193E-1	9.278438E-1	9.167167E-1	9.519640E-1	9.865662E-1	9.364000E-1	9.206582E-1	1.026710E+0	1.031117E+0	1.006467E+0	9.392879E-1	9.566640E-1	9.200377E-1	9.007076E-1	9.178957E-1	9.578054E-1	9.695967E-1	9.909674E-1	9.883390E-1	9.650479E-1	9.691204E-1	9.485180E-1	9.794280E-1	9.546234E-1	9.640958E-1	9.495366E-1	9.619524E-1	9.220027E-1	9.913798E-1	9.822958E-1	9.001207E-1	9.816202E-1	9.254892E-1	9.708194E-1	9.368996E-1	9.249298E-1	9.597681E-1	9.942863E-1	8.924841E-1	9.765224E-1	9.692203E-1	9.707825E-1	9.293908E-1	9.337036E-1	1.007711E+0	1.006089E+0	9.280201E-1	9.643469E-1	8.955606E-1	9.299574E-1	9.105284E-1	9.747897E-1	9.642059E-1	9.886765E-1	9.679403E-1	9.788503E-1	9.528481E-1	9.752782E-1	9.277203E-1	1.004121E+0	9.536433E-1	9.090982E-1	9.739355E-1	9.860725E-1	9.268636E-1	9.139814E-1	1.001808E+0	1.023856E+0	9.270293E-1	9.920946E-1	1.001137E+0	9.456551E-1	9.614880E-1	9.950463E-1	9.233824E-1	1.032865E+0	9.218660E-1	9.620465E-1	1.004848E+0	1.013509E+0	9.217756E-1	9.741451E-1	9.932888E-1	9.861869E-1	9.683038E-1	9.419770E-1	9.358619E-1	9.730627E-1	9.852979E-1	9.991342E-1	9.539283E-1	9.789596E-1	9.726472E-1	1.037187E+0	9.377532E-1
2.876090E+2	7.645364E-1	7.081399E-1	7.452933E-1	8.073484E-1	7.402514E-1	7.480445E-1	7.144477E-1	8.076707E-1	7.643509E-1	7.079497E-1	7.192912E-1	7.402783E-1	7.614009E-1	7.239667E-1	7.635987E-1	7.509484E-1	6.790767E-1	7.393514E-1	7.484935E-1	7.233112E-1	6.990004E-1	7.706053E-1	7.312099E-1	7.092930E-1	7.261944E-1	7.775077E-1	7.478692E-1	6.956043E-1	7.491147E-1	7.167052E-1	8.128236E-1	7.614606E-1	7.690228E-1	7.662352E-1	7.387146E-1	7.460700E-1	7.550935E-1	7.462438E-1	7.199626E-1	7.198637E-1	7.482033E-1	7.338286E-1	7.340897E-1	6.980810E-1	7.053325E-1	6.724055E-1	7.245851E-1	7.092996E-1	6.820422E-1	7.442339E-1	6.943222E-1	7.482380E-1	7.429473E-1	7.292270E-1	7.432737E-1	6.986241E-1	7.154757E-1	7.460132E-1	7.443057E-1	7.424054E-1	7.114473E-1	7.016371E-1	7.282226E-1	7.716071E-1	7.148134E-1	7.423119E-1	6.927663E-1	7.526835E-1	7.234701E-1	7.476082E-1	7.543603E-1	7.028350E-1	7.652826E-1	6.745275E-1	6.995257E-1	7.674603E-1	7.303698E-1	6.751821E-1	7.531590E-1	7.533417E-1	6.892022E-1	7.090207E-1	6.937008E-1	6.881777E-1	7.972225E-1	6.851142E-1	7.374468E-1	7.454598E-1	7.284955E-1	7.028171E-1	7.221997E-1	6.591597E-1	7.365861E-1	7.325763E-1	7.459952E-1	7.769904E-1	7.369954E-1	7.591320E-1	7.247586E-1	7.565590E-1	7.586954E-1	7.464743E-1	7.545996E-1	6.974741E-1	7.116474E-1	7.009762E-1	7.711630E-1	6.822523E-1	7.787985E-1	7.585864E-1	6.885919E-1	7.279710E-1	7.305677E-1	7.414554E-1	7.414819E-1	7.503236E-1	7.440198E-1	7.784832E-1	7.179114E-1	7.008379E-1	7.597332E-1	7.871106E-1	7.021311E-1	7.491415E-1	7.009214E-1	7.734701E-1	7.188044E-1	6.991482E-1	7.541271E-1	7.628815E-1	7.317560E-1	7.491030E-1	7.631001E-1	6.950770E-1	7.581714E-1	7.493072E-1	7.270911E-1	7.426604E-1	7.065213E-1	7.172813E-1	7.625362E-1	7.277740E-1	7.622783E-1	7.650944E-1	7.251157E-1	7.101662E-1	6.960001E-1	7.955168E-1	7.005846E-1	7.522974E-1	7.409689E-1	7.746060E-1	7.198611E-1	7.467972E-1	7.003701E-1	7.622532E-1	7.460099E-1	7.363851E-1	7.398180E-1	7.306183E-1	7.632107E-1	7.604150E-1	7.192843E-1	7.252310E-1	7.561022E-1	6.905584E-1	7.150355E-1	8.026463E-1	7.685742E-1	8.504991E-1	8.280791E-1
2.878030E+2	5.548733E-1	5.248976E-1	5.449838E-1	5.429706E-1	5.650610E-1	5.635147E-1	5.012295E-1	5.637679E-1	5.231194E-1	5.222961E-1	5.659665E-1	4.942906E-1	5.075946E-1	6.255311E-1	5.235226E-1	5.394135E-1	5.797222E-1	5.514186E-1	5.486572E-1	5.187599E-1	5.292141E-1	5.616389E-1	5.202694E-1	5.108795E-1	5.081839E-1	5.833627E-1	5.000550E-1	4.611666E-1	5.563828E-1	4.945933E-1	5.270805E-1	5.447192E-1	5.474969E-1	5.306926E-1	5.251399E-1	5.473487E-1	5.512276E-1	5.620258E-1	5.307774E-1	5.522625E-1	5.893239E-1	6.048563E-1	5.732208E-1	5.273895E-1	4.972123E-1	5.279948E-1	5.371839E-1	5.536193E-1	5.152433E-1	5.035256E-1	5.910498E-1	5.282438E-1	5.487137E-1	5.184157E-1	5.582059E-1	5.207783E-1	5.290641E-1	5.530754E-1	5.467061E-1	5.764879E-1	5.479217E-1	5.356006E-1	5.570402E-1	4.674527E-1	5.397050E-1	5.569829E-1	5.531977E-1	5.743859E-1	5.380652E-1	5.721885E-1	5.356092E-1	5.463427E-1	5.273510E-1	5.158362E-1	5.109811E-1	4.952555E-1	5.910604E-1	5.627455E-1	5.515404E-1	5.308744E-1	5.240520E-1	4.979917E-1	5.575330E-1	5.485132E-1	5.423286E-1	5.595743E-1	5.313469E-1	5.476621E-1	5.558987E-1	5.468578E-1	5.202800E-1	5.453073E-1	5.599667E-1	5.244308E-1	5.389341E-1	5.737368E-1	5.931546E-1	5.237964E-1	4.888525E-1	4.877202E-1	5.446346E-1	5.858877E-1	5.883415E-1	5.632375E-1	5.772935E-1	5.595679E-1	5.801452E-1	5.537599E-1	5.356691E-1	5.854802E-1	5.330463E-1	5.923307E-1	5.389924E-1	5.606302E-1	5.314698E-1	5.442373E-1	5.117436E-1	5.538737E-1	5.363002E-1	6.116761E-1	5.934503E-1	5.537900E-1	5.901055E-1	5.751512E-1	5.773325E-1	5.381278E-1	5.466109E-1	5.579058E-1	5.120971E-1	5.367441E-1	5.269740E-1	5.410047E-1	5.388201E-1	5.534688E-1	5.345738E-1	5.362179E-1	5.662130E-1	5.943477E-1	5.447640E-1	5.146769E-1	5.200584E-1	5.533947E-1	5.452689E-1	5.547302E-1	5.572957E-1	4.942501E-1	5.929540E-1	5.540674E-1	5.640282E-1	5.536163E-1	5.377562E-1	5.314788E-1	5.359996E-1	5.431386E-1	5.561257E-1	5.564727E-1	5.405164E-1	5.573292E-1	5.669838E-1	5.279941E-1	5.471848E-1	5.097179E-1	5.432257E-1	5.565982E-1	5.394127E-1	5.711973E-1	5.458514E-1	5.579954E-1	5.347450E-1	6.111851E-1	5.626282E-1
2.880040E+2	5.345460E-1	5.149256E-1	5.369102E-1	4.800898E-1	5.357954E-1	5.132237E-1	5.071188E-1	5.667803E-1	5.314371E-1	5.365214E-1	4.877366E-1	5.434899E-1	5.114497E-1	5.106858E-1	5.312196E-1	4.865056E-1	5.327508E-1	4.934568E-1	4.971173E-1	4.985163E-1	5.083791E-1	5.153722E-1	5.310493E-1	4.818625E-1	5.068658E-1	4.900580E-1	5.184259E-1	4.989844E-1	5.128828E-1	5.368215E-1	5.190313E-1	5.001714E-1	5.311745E-1	5.086196E-1	5.272102E-1	5.207978E-1	4.907616E-1	5.083043E-1	5.048271E-1	5.519047E-1	5.217536E-1	4.866722E-1	4.724127E-1	5.421382E-1	5.410714E-1	4.855698E-1	5.091237E-1	4.999828E-1	5.742940E-1	5.137168E-1	5.042277E-1	5.130527E-1	5.419791E-1	5.285882E-1	5.087415E-1	5.415514E-1	5.018919E-1	5.003597E-1	4.923809E-1	5.316517E-1	5.259331E-1	4.820403E-1	4.994741E-1	5.238572E-1	5.144883E-1	5.308040E-1	5.121269E-1	4.879641E-1	5.001115E-1	5.113347E-1	5.439902E-1	5.537218E-1	5.117562E-1	4.485244E-1	4.676147E-1	5.366445E-1	5.480129E-1	4.800925E-1	4.877799E-1	5.343551E-1	5.312849E-1	5.464829E-1	5.226184E-1	4.651513E-1	5.315733E-1	5.302466E-1	5.159327E-1	5.211062E-1	5.163943E-1	5.157974E-1	5.459943E-1	5.026297E-1	5.316347E-1	5.058045E-1	4.964422E-1	5.118210E-1	5.394052E-1	5.511202E-1	5.045338E-1	4.882854E-1	5.129517E-1	5.405936E-1	4.981034E-1	5.147934E-1	4.839065E-1	4.701511E-1	5.079700E-1	5.247290E-1	5.265630E-1	5.136698E-1	5.211592E-1	5.534760E-1	5.771646E-1	5.319537E-1	5.337886E-1	5.129317E-1	5.479882E-1	5.118004E-1	4.838592E-1	4.900326E-1	5.038059E-1	5.006613E-1	5.093596E-1	5.137600E-1	5.238325E-1	5.507086E-1	4.930248E-1	4.733280E-1	4.972262E-1	4.860955E-1	4.993008E-1	5.262400E-1	5.159922E-1	5.133210E-1	5.084851E-1	5.033420E-1	5.309337E-1	5.215695E-1	5.225207E-1	5.441086E-1	5.476587E-1	5.297550E-1	5.348726E-1	5.292713E-1	5.093152E-1	5.335701E-1	5.376579E-1	5.268021E-1	5.043460E-1	5.290684E-1	5.284759E-1	4.860684E-1	5.352714E-1	5.459967E-1	5.427935E-1	5.385682E-1	5.352494E-1	5.100173E-1	5.244094E-1	5.191196E-1	5.565108E-1	4.987604E-1	5.018431E-1	5.943607E-1	5.542787E-1	5.728946E-1	4.902716E-1	5.622530E-1	5.728461E-1	5.580465E-1	5.430185E-1
2.882240E+2	6.989228E-1	7.337397E-1	7.448698E-1	7.712567E-1	7.535208E-1	7.414312E-1	6.942490E-1	7.179003E-1	7.029453E-1	7.300452E-1	6.880111E-1	7.427802E-1	7.494065E-1	7.494564E-1	6.983628E-1	7.302317E-1	7.209210E-1	7.633392E-1	7.052192E-1	7.316417E-1	7.340650E-1	7.139740E-1	7.018020E-1	6.830626E-1	7.129154E-1	7.796992E-1	7.200886E-1	7.216048E-1	7.587752E-1	6.892760E-1	7.249024E-1	7.136392E-1	7.391014E-1	6.959685E-1	7.166225E-1	6.958155E-1	7.381615E-1	6.972312E-1	7.272685E-1	6.965616E-1	6.759958E-1	7.460918E-1	7.253301E-1	6.964553E-1	6.864677E-1	6.958330E-1	7.207024E-1	7.167810E-1	6.760943E-1	7.639131E-1	7.599108E-1	7.173572E-1	7.191170E-1	7.387454E-1	7.554064E-1	6.769250E-1	7.633385E-1	6.861321E-1	6.890186E-1	7.259838E-1	6.863151E-1	7.334455E-1	7.081464E-1	6.677839E-1	7.377800E-1	6.598596E-1	7.294875E-1	7.419245E-1	7.239935E-1	7.610918E-1	7.453226E-1	7.129548E-1	7.043196E-1	6.536390E-1	6.776728E-1	7.113299E-1	7.457833E-1	7.183248E-1	6.902472E-1	7.454094E-1	7.117996E-1	7.581096E-1	6.840438E-1	7.719547E-1	6.897573E-1	6.815469E-1	6.918786E-1	7.412114E-1	7.030129E-1	6.941316E-1	7.213212E-1	7.756560E-1	7.217271E-1	7.591122E-1	7.087071E-1	7.397138E-1	6.511306E-1	7.100529E-1	6.851104E-1	7.103471E-1	7.661235E-1	6.933212E-1	7.073921E-1	6.760931E-1	7.362494E-1	6.566423E-1	6.994040E-1	7.135292E-1	6.569847E-1	7.409594E-1	7.066008E-1	6.964926E-1	7.010236E-1	7.534802E-1	6.743831E-1	7.498097E-1	7.448311E-1	7.665615E-1	7.142994E-1	7.344824E-1	7.499506E-1	7.167347E-1	7.496552E-1	7.313708E-1	7.046925E-1	7.430204E-1	7.530487E-1	7.157313E-1	7.172675E-1	6.851228E-1	7.106791E-1	7.924575E-1	7.256837E-1	7.276345E-1	7.085810E-1	7.258054E-1	7.671172E-1	6.957581E-1	6.559557E-1	7.670465E-1	7.459308E-1	6.861754E-1	7.619675E-1	7.068716E-1	7.371381E-1	6.624352E-1	7.126085E-1	7.436660E-1	7.076577E-1	7.762246E-1	6.935619E-1	6.605908E-1	6.920838E-1	7.220021E-1	6.645366E-1	7.325653E-1	7.373220E-1	7.016706E-1	7.854608E-1	7.492118E-1	7.552749E-1	6.921241E-1	7.138213E-1	7.830125E-1	7.753821E-1	6.781575E-1	7.326966E-1	7.422651E-1	7.048925E-1	7.212927E-1	7.405359E-1
2.884130E+2	9.628816E-1	9.759557E-1	9.649496E-1	9.927173E-1	9.974418E-1	9.416115E-1	9.317592E-1	1.059830E+0	9.690377E-1	1.004099E+0	9.273718E-1	1.013066E+0	9.950234E-1	9.488815E-1	1.007970E+0	9.610246E-1	9.880334E-1	9.776835E-1	9.842906E-1	9.411224E-1	9.795958E-1	1.015703E+0	9.295874E-1	9.802157E-1	1.033181E+0	9.013992E-1	9.906036E-1	9.421560E-1	1.044672E+0	9.785760E-1	9.867327E-1	1.046853E+0	1.041952E+0	1.005656E+0	1.000209E+0	1.004708E+0	9.906464E-1	9.654613E-1	9.747884E-1	9.604839E-1	9.788451E-1	9.336852E-1	9.814830E-1	9.368598E-1	1.025730E+0	9.719096E-1	9.964943E-1	1.010787E+0	9.325161E-1	9.467329E-1	9.356749E-1	9.281109E-1	9.436135E-1	9.375528E-1	1.012933E+0	9.590043E-1	9.600582E-1	1.011101E+0	9.940551E-1	9.572270E-1	9.104009E-1	9.868332E-1	9.837066E-1	9.958876E-1	9.726084E-1	9.823814E-1	9.288075E-1	1.025133E+0	1.011853E+0	9.590303E-1	9.921982E-1	9.809640E-1	1.032899E+0	8.907262E-1	9.786460E-1	9.875513E-1	9.663520E-1	9.513411E-1	9.687182E-1	9.873204E-1	1.019981E+0	1.000278E+0	9.538752E-1	1.059922E+0	1.001061E+0	9.512498E-1	9.562516E-1	9.568172E-1	1.010508E+0	1.005265E+0	9.968729E-1	9.814377E-1	9.940450E-1	9.774702E-1	9.905019E-1	9.960212E-1	9.557922E-1	9.588671E-1	1.003539E+0	9.458313E-1	1.028487E+0	9.566861E-1	9.912049E-1	9.385792E-1	9.609933E-1	9.910420E-1	9.191177E-1	9.789672E-1	9.918299E-1	9.466907E-1	9.616117E-1	9.850028E-1	9.513744E-1	9.384327E-1	9.885565E-1	9.442111E-1	9.490985E-1	9.179706E-1	9.410982E-1	9.914954E-1	1.036004E+0	9.328061E-1	9.785960E-1	1.010752E+0	9.376076E-1	9.599931E-1	9.521739E-1	9.774110E-1	9.736341E-1	9.599254E-1	9.627287E-1	1.014901E+0	1.036744E+0	9.962700E-1	1.005401E+0	9.736797E-1	1.032889E+0	9.863832E-1	9.314172E-1	1.018123E+0	9.449829E-1	1.002076E+0	9.954716E-1	9.717956E-1	9.868645E-1	9.392871E-1	9.453480E-1	1.000165E+0	9.871636E-1	9.942318E-1	9.205808E-1	9.948722E-1	1.046968E+0	9.484012E-1	9.949389E-1	1.088316E+0	9.864504E-1	1.007411E+0	1.022028E+0	9.857012E-1	1.029320E+0	1.018425E+0	9.936255E-1	1.065387E+0	9.876042E-1	1.019479E+0	9.450358E-1	1.010560E+0	9.387700E-1	1.053341E+0	8.754871E-1
2.886030E+2	1.170885E+0	1.185296E+0	1.160425E+0	1.136600E+0	1.187334E+0	1.183497E+0	1.133554E+0	1.147496E+0	1.213586E+0	1.131924E+0	1.221543E+0	1.124098E+0	1.166652E+0	1.140212E+0	1.174098E+0	1.087182E+0	1.220126E+0	1.214661E+0	1.140605E+0	1.141982E+0	1.104481E+0	1.122219E+0	1.089019E+0	1.155027E+0	1.072270E+0	1.158358E+0	1.137634E+0	1.177634E+0	1.197682E+0	1.175283E+0	1.202895E+0	1.103947E+0	1.151252E+0	1.176873E+0	1.147755E+0	1.130753E+0	1.188148E+0	1.129396E+0	1.111143E+0	1.153301E+0	1.194831E+0	1.164561E+0	1.096421E+0	1.128021E+0	1.181038E+0	1.152362E+0	1.161378E+0	1.137183E+0	1.147933E+0	1.160688E+0	1.213031E+0	1.141469E+0	1.218300E+0	1.107470E+0	1.116759E+0	1.113642E+0	1.160808E+0	1.121184E+0	1.165986E+0	1.125681E+0	1.070394E+0	1.092027E+0	1.164935E+0	1.178732E+0	1.128176E+0	1.147316E+0	1.116087E+0	1.144543E+0	1.153944E+0	1.193926E+0	1.209570E+0	1.120227E+0	1.141857E+0	1.087235E+0	1.117485E+0	1.160326E+0	1.186642E+0	1.107861E+0	1.184766E+0	1.157482E+0	1.159063E+0	1.130801E+0	1.137133E+0	1.144025E+0	1.208410E+0	1.053757E+0	1.181227E+0	1.177812E+0	1.235065E+0	1.209487E+0	1.125071E+0	1.163971E+0	1.132310E+0	1.180494E+0	1.172475E+0	1.175864E+0	1.153781E+0	1.060491E+0	1.114020E+0	1.070278E+0	1.078491E+0	1.167011E+0	1.125629E+0	1.096396E+0	1.136588E+0	1.148293E+0	1.213718E+0	1.161714E+0	1.157567E+0	1.153583E+0	1.094588E+0	1.164292E+0	1.183161E+0	1.170988E+0	1.067917E+0	1.133198E+0	1.172150E+0	1.164879E+0	1.108678E+0	1.114014E+0	1.242591E+0	1.141607E+0	1.139902E+0	1.146399E+0	1.121933E+0	1.198924E+0	1.144487E+0	1.170694E+0	1.129812E+0	1.194262E+0	1.164782E+0	1.138982E+0	1.167397E+0	1.239350E+0	1.092614E+0	1.159515E+0	1.188143E+0	1.135324E+0	1.108437E+0	1.159685E+0	1.194026E+0	1.132821E+0	1.053077E+0	1.140272E+0	1.163845E+0	1.126298E+0	1.180964E+0	1.153160E+0	1.200526E+0	1.173742E+0	1.096735E+0	1.126627E+0	1.181546E+0	1.158547E+0	1.169679E+0	1.175301E+0	1.126828E+0	1.151175E+0	1.164222E+0	1.220355E+0	1.179408E+0	1.107305E+0	1.117896E+0	1.171639E+0	1.175405E+0	1.192617E+0	1.136562E+0	1.260501E+0	1.081999E+0	1.150454E+0	1.442618E+0
2.888170E+2	1.106550E+0	1.164671E+0	1.164276E+0	1.146704E+0	1.152010E+0	1.145015E+0	1.063844E+0	1.073204E+0	1.053098E+0	1.145746E+0	1.148228E+0	1.073670E+0	1.163918E+0	1.153400E+0	1.058307E+0	1.174059E+0	1.103951E+0	1.153330E+0	1.107293E+0	1.099270E+0	1.161649E+0	1.118292E+0	1.124085E+0	1.142035E+0	1.126266E+0	1.129704E+0	1.142213E+0	1.112734E+0	1.129873E+0	1.081680E+0	1.185042E+0	1.162195E+0	1.210531E+0	1.184957E+0	1.145441E+0	1.175541E+0	1.153754E+0	1.163693E+0	1.102821E+0	1.146968E+0	1.080135E+0	1.113873E+0	1.062890E+0	1.116266E+0	1.168793E+0	1.120821E+0	1.085417E+0	1.121856E+0	1.150640E+0	1.112522E+0	1.164840E+0	1.121862E+0	1.146795E+0	1.131225E+0	1.085968E+0	1.140388E+0	1.154794E+0	1.123977E+0	1.135923E+0	1.158810E+0	1.085127E+0	1.129923E+0	1.147084E+0	1.146551E+0	1.121999E+0	1.106598E+0	1.172424E+0	1.160100E+0	1.153861E+0	1.149969E+0	1.132641E+0	1.106789E+0	1.150645E+0	1.054967E+0	1.036149E+0	1.075748E+0	1.159204E+0	1.142007E+0	1.110403E+0	1.151865E+0	1.184529E+0	1.075217E+0	1.085373E+0	1.139534E+0	1.057698E+0	1.139719E+0	1.066201E+0	1.084169E+0	1.085456E+0	1.161960E+0	1.070754E+0	1.111090E+0	1.150416E+0	1.125393E+0	1.155144E+0	1.085685E+0	1.082013E+0	1.057167E+0	1.129217E+0	1.048516E+0	1.123160E+0	1.149622E+0	1.068116E+0	1.161486E+0	1.171000E+0	1.122383E+0	1.132343E+0	1.157152E+0	1.066222E+0	1.058514E+0	1.170110E+0	1.096423E+0	1.202749E+0	1.132892E+0	1.118986E+0	1.093934E+0	1.167757E+0	1.187515E+0	1.092583E+0	1.073898E+0	1.200975E+0	1.151095E+0	1.105065E+0	1.151131E+0	1.107689E+0	1.077145E+0	1.079899E+0	1.058744E+0	1.089088E+0	1.101730E+0	1.138865E+0	1.125855E+0	1.157157E+0	1.080733E+0	1.083005E+0	1.099137E+0	1.167290E+0	1.125391E+0	1.197295E+0	1.121790E+0	1.154487E+0	1.125409E+0	1.131969E+0	1.066329E+0	1.143589E+0	1.117327E+0	1.073058E+0	1.131521E+0	1.152771E+0	1.180805E+0	1.135243E+0	1.115844E+0	1.081324E+0	1.058645E+0	1.126439E+0	1.113088E+0	1.115296E+0	1.065374E+0	1.172122E+0	1.170563E+0	1.056391E+0	1.182667E+0	1.165091E+0	1.135884E+0	1.144799E+0	1.136832E+0	1.116958E+0	1.161347E+0	1.099860E+0	1.182557E+0	1.136658E+0
2.890200E+2	1.082775E+0	1.108932E+0	1.143543E+0	1.094705E+0	1.181771E+0	1.179416E+0	1.124751E+0	1.137612E+0	1.095692E+0	1.165660E+0	1.064923E+0	1.038815E+0	1.099980E+0	1.114872E+0	1.154823E+0	1.134555E+0	1.156518E+0	1.160653E+0	1.086947E+0	1.110481E+0	1.133704E+0	1.096661E+0	1.112958E+0	1.133553E+0	1.109098E+0	1.156149E+0	1.158187E+0	1.158459E+0	1.186678E+0	1.089977E+0	1.142328E+0	1.084550E+0	1.182539E+0	1.114903E+0	1.151448E+0	1.080523E+0	1.121963E+0	1.187364E+0	1.092577E+0	1.135734E+0	1.112896E+0	1.129086E+0	1.109444E+0	1.128614E+0	1.132309E+0	1.189333E+0	1.122294E+0	1.142880E+0	1.165676E+0	1.082928E+0	1.137150E+0	1.029063E+0	1.104417E+0	1.088455E+0	1.072130E+0	1.134538E+0	1.091493E+0	1.132082E+0	1.169848E+0	1.132816E+0	1.211262E+0	1.130915E+0	1.094904E+0	1.137581E+0	1.090008E+0	1.094381E+0	1.134569E+0	1.117161E+0	1.158926E+0	1.127841E+0	1.099239E+0	1.076351E+0	1.114294E+0	1.034513E+0	1.058313E+0	1.082460E+0	1.169274E+0	1.135546E+0	1.079145E+0	1.108545E+0	1.097996E+0	1.193214E+0	1.090723E+0	1.144796E+0	1.076329E+0	1.078223E+0	1.082082E+0	1.084191E+0	1.161150E+0	1.125022E+0	1.125186E+0	1.141183E+0	1.126787E+0	1.123569E+0	1.088836E+0	1.152707E+0	1.089120E+0	1.108965E+0	1.098775E+0	1.130018E+0	1.114794E+0	1.122403E+0	1.103172E+0	1.105601E+0	1.192210E+0	1.049592E+0	1.155220E+0	1.084554E+0	1.057793E+0	1.149508E+0	1.150393E+0	1.115711E+0	1.130929E+0	1.145133E+0	1.151390E+0	1.045159E+0	1.096594E+0	1.137864E+0	1.089095E+0	1.066232E+0	1.102833E+0	1.089728E+0	1.131730E+0	1.136621E+0	1.114082E+0	1.109763E+0	1.079194E+0	1.173252E+0	1.101944E+0	1.214006E+0	1.158281E+0	1.141339E+0	1.110076E+0	1.145742E+0	1.151319E+0	1.077500E+0	1.157195E+0	1.097909E+0	1.104284E+0	1.117999E+0	1.145768E+0	1.064676E+0	1.150227E+0	1.103972E+0	1.115173E+0	1.098313E+0	1.162647E+0	1.019280E+0	1.133480E+0	1.180081E+0	1.091872E+0	1.133033E+0	1.117635E+0	1.108105E+0	1.168507E+0	1.115053E+0	1.112623E+0	1.059630E+0	1.145332E+0	1.155036E+0	1.124720E+0	1.097766E+0	1.098563E+0	1.111055E+0	1.112017E+0	1.201137E+0	1.119280E+0	1.182563E+0	1.047032E+0	1.087782E+0	1.211629E+0
2.892040E+2	1.042571E+0	1.009635E+0	1.109127E+0	1.005942E+0	1.009165E+0	1.042427E+0	1.052920E+0	1.034260E+0	1.036185E+0	1.031359E+0	1.012312E+0	1.001040E+0	1.020319E+0	1.030567E+0	1.008838E+0	1.006701E+0	1.077397E+0	1.026846E+0	1.037689E+0	1.048713E+0	1.030115E+0	9.873990E-1	1.012422E+0	1.032201E+0	1.041080E+0	1.074064E+0	9.744742E-1	1.001586E+0	1.021663E+0	9.461385E-1	1.041035E+0	1.055382E+0	1.060111E+0	1.011989E+0	1.063553E+0	1.021309E+0	1.049892E+0	1.059317E+0	1.053770E+0	9.482491E-1	1.013791E+0	1.029190E+0	1.049197E+0	1.025240E+0	1.056379E+0	1.010836E+0	1.019059E+0	1.012126E+0	1.023926E+0	1.034905E+0	1.091227E+0	1.042043E+0	1.017956E+0	1.007029E+0	1.000663E+0	1.022948E+0	1.033741E+0	1.030716E+0	1.031235E+0	1.078594E+0	1.078699E+0	1.020687E+0	1.039482E+0	1.035559E+0	1.059369E+0	1.015113E+0	1.060303E+0	1.034896E+0	1.011867E+0	1.009026E+0	1.023568E+0	1.086545E+0	1.093346E+0	1.037002E+0	9.710015E-1	1.031158E+0	1.094310E+0	1.076101E+0	9.877231E-1	1.021842E+0	9.965899E-1	1.051840E+0	1.014763E+0	1.045023E+0	1.008597E+0	1.025530E+0	1.049328E+0	1.011086E+0	1.051786E+0	1.025344E+0	1.016391E+0	1.032925E+0	1.005614E+0	1.057117E+0	1.076588E+0	1.035712E+0	9.871910E-1	9.867744E-1	1.022406E+0	1.028194E+0	1.077972E+0	1.003861E+0	1.028724E+0	1.007782E+0	1.022823E+0	1.028335E+0	1.016675E+0	1.088074E+0	1.011246E+0	1.094961E+0	1.017588E+0	1.040488E+0	1.033471E+0	1.036903E+0	1.018629E+0	9.790527E-1	1.083038E+0	1.025047E+0	1.016397E+0	1.000658E+0	1.045600E+0	1.019547E+0	9.995290E-1	1.077744E+0	9.694368E-1	1.065532E+0	1.051743E+0	1.007460E+0	1.032027E+0	1.070066E+0	1.049419E+0	1.026586E+0	1.011356E+0	1.014774E+0	1.014653E+0	1.039465E+0	1.034145E+0	1.048101E+0	1.009503E+0	1.081020E+0	1.027845E+0	9.731679E-1	1.031690E+0	1.035381E+0	9.908879E-1	1.047451E+0	9.990794E-1	9.965904E-1	1.025420E+0	1.101131E+0	9.756086E-1	9.968719E-1	1.006791E+0	1.043038E+0	1.067577E+0	1.030474E+0	1.071490E+0	9.562467E-1	1.061303E+0	1.060264E+0	1.028025E+0	9.660625E-1	1.055661E+0	1.107369E+0	1.030980E+0	1.028473E+0	1.040124E+0	1.019852E+0	9.887420E-1	1.055642E+0	1.034597E+0
2.894080E+2	8.152573E-1	8.558385E-1	7.908616E-1	8.158205E-1	8.150953E-1	8.445121E-1	8.501192E-1	7.733079E-1	7.762686E-1	8.658127E-1	7.785655E-1	8.017272E-1	8.385053E-1	8.452247E-1	8.100426E-1	8.524752E-1	8.228014E-1	8.559853E-1	7.896644E-1	7.665896E-1	8.479910E-1	8.277950E-1	7.989024E-1	7.701377E-1	8.303584E-1	7.871770E-1	8.002546E-1	7.676865E-1	7.725491E-1	8.024240E-1	7.674335E-1	7.947157E-1	8.578694E-1	7.710671E-1	8.184763E-1	8.052534E-1	7.894800E-1	7.785606E-1	7.935388E-1	7.602984E-1	7.735702E-1	8.331580E-1	7.469966E-1	7.659483E-1	8.011541E-1	8.117955E-1	8.196536E-1	7.832418E-1	8.160791E-1	7.558197E-1	8.303755E-1	8.090130E-1	8.632968E-1	8.127126E-1	8.290392E-1	8.083037E-1	7.676349E-1	7.866870E-1	8.307537E-1	8.026275E-1	7.858925E-1	7.887250E-1	8.592529E-1	8.171010E-1	8.436287E-1	8.335185E-1	8.187604E-1	7.915715E-1	8.536663E-1	7.769640E-1	8.101377E-1	8.910319E-1	8.697606E-1	7.917716E-1	7.962680E-1	8.244536E-1	7.958078E-1	7.321052E-1	7.975727E-1	8.258497E-1	8.325046E-1	8.157279E-1	8.046165E-1	8.599783E-1	8.419890E-1	7.532323E-1	8.214036E-1	7.859889E-1	8.176902E-1	7.753468E-1	8.382322E-1	7.953677E-1	8.344495E-1	7.783662E-1	8.349181E-1	8.105375E-1	8.180571E-1	7.365228E-1	8.168492E-1	7.962459E-1	8.200910E-1	8.410646E-1	8.304948E-1	8.356453E-1	8.034833E-1	8.683477E-1	7.977400E-1	7.849270E-1	7.780616E-1	7.923267E-1	7.908753E-1	8.042466E-1	8.562925E-1	8.259633E-1	7.528086E-1	8.849350E-1	8.122406E-1	8.301242E-1	8.211188E-1	8.194708E-1	8.377350E-1	7.682942E-1	8.171351E-1	8.295296E-1	8.644365E-1	8.446049E-1	8.219684E-1	8.219523E-1	8.054737E-1	8.250203E-1	8.171352E-1	8.154605E-1	7.566040E-1	7.925978E-1	7.695168E-1	8.287040E-1	8.596187E-1	7.694387E-1	8.059557E-1	7.689373E-1	8.672488E-1	7.728967E-1	8.165957E-1	7.975692E-1	8.266694E-1	8.173741E-1	8.121154E-1	7.832394E-1	8.232804E-1	7.980316E-1	7.821846E-1	8.238600E-1	7.924414E-1	7.568982E-1	8.057024E-1	8.554780E-1	7.958302E-1	7.991212E-1	8.320771E-1	8.344443E-1	8.388527E-1	8.138086E-1	7.852928E-1	8.298963E-1	7.651187E-1	8.174079E-1	8.207013E-1	8.118152E-1	8.649663E-1	8.692800E-1	7.075134E-1
2.896090E+2	5.767109E-1	6.014877E-1	6.074156E-1	6.147282E-1	5.919991E-1	6.294523E-1	5.995447E-1	6.693682E-1	6.186980E-1	5.751049E-1	6.456076E-1	5.874376E-1	5.698831E-1	6.325295E-1	6.377224E-1	6.212496E-1	6.158628E-1	6.353340E-1	6.022784E-1	6.183949E-1	5.848729E-1	6.361822E-1	6.118909E-1	6.048090E-1	5.960402E-1	6.046595E-1	5.741808E-1	6.418098E-1	6.630795E-1	5.940909E-1	6.117784E-1	6.167865E-1	6.056125E-1	5.964314E-1	5.593129E-1	5.908387E-1	6.049075E-1	6.343458E-1	5.828763E-1	6.376821E-1	5.626555E-1	6.513273E-1	5.789192E-1	5.688174E-1	6.711889E-1	6.085420E-1	6.181961E-1	6.184215E-1	6.642954E-1	6.310758E-1	6.107190E-1	6.198670E-1	5.898113E-1	5.891175E-1	5.455627E-1	6.123907E-1	6.266607E-1	6.218193E-1	6.342042E-1	6.068211E-1	5.784905E-1	6.197291E-1	6.036031E-1	5.872180E-1	6.532949E-1	6.244970E-1	6.247248E-1	6.368151E-1	6.476060E-1	6.240957E-1	5.979394E-1	6.600258E-1	6.199746E-1	6.064339E-1	5.814717E-1	6.139988E-1	6.041820E-1	6.327918E-1	6.497456E-1	6.006697E-1	6.230463E-1	6.286355E-1	6.157375E-1	5.718474E-1	5.784931E-1	5.962931E-1	6.180819E-1	6.241318E-1	5.894309E-1	6.390788E-1	6.352940E-1	6.520218E-1	6.139655E-1	6.428739E-1	6.380371E-1	6.250720E-1	6.666607E-1	6.179576E-1	5.840410E-1	6.050316E-1	5.945864E-1	6.118291E-1	6.600626E-1	6.271510E-1	6.558030E-1	6.672861E-1	5.842213E-1	6.121470E-1	5.729496E-1	5.994459E-1	6.137262E-1	6.138041E-1	6.119758E-1	5.860540E-1	6.225041E-1	6.448656E-1	6.183482E-1	5.821062E-1	5.817740E-1	5.843023E-1	6.603292E-1	5.952169E-1	6.489086E-1	6.530825E-1	5.605411E-1	6.103983E-1	6.325676E-1	5.849058E-1	6.343065E-1	6.515388E-1	6.406598E-1	5.971286E-1	5.989864E-1	6.307527E-1	6.047583E-1	6.214204E-1	6.359908E-1	5.775479E-1	6.319250E-1	6.171712E-1	6.479691E-1	5.706203E-1	6.559688E-1	6.711839E-1	6.243859E-1	6.347619E-1	6.335314E-1	6.026725E-1	6.109954E-1	6.169179E-1	6.085668E-1	5.794754E-1	6.624473E-1	6.063928E-1	7.043848E-1	6.198678E-1	6.697966E-1	6.497404E-1	6.361376E-1	6.622319E-1	6.283126E-1	6.119615E-1	6.236047E-1	6.111842E-1	6.063597E-1	6.153117E-1	5.995269E-1	6.426681E-1	6.449162E-1	6.242997E-1	5.310715E-1
2.898020E+2	6.203954E-1	6.947131E-1	6.965574E-1	6.541651E-1	6.593245E-1	7.091566E-1	6.778079E-1	6.641815E-1	6.727762E-1	6.871755E-1	6.785187E-1	7.200415E-1	6.370948E-1	6.868307E-1	6.785987E-1	6.522591E-1	6.781365E-1	5.967809E-1	6.132501E-1	6.467637E-1	6.419831E-1	7.014692E-1	6.675964E-1	6.689415E-1	6.395844E-1	6.813666E-1	6.749139E-1	6.156902E-1	6.635762E-1	6.364266E-1	6.366755E-1	6.640697E-1	6.811870E-1	6.418858E-1	6.336465E-1	6.492240E-1	6.337270E-1	6.959207E-1	6.325908E-1	6.292396E-1	6.002493E-1	6.586836E-1	6.379720E-1	6.230150E-1	6.720089E-1	6.571078E-1	6.792095E-1	6.513095E-1	6.674991E-1	6.534998E-1	6.385470E-1	6.584831E-1	6.428757E-1	6.523045E-1	6.200478E-1	6.643493E-1	6.570118E-1	6.439229E-1	6.838125E-1	6.607811E-1	6.289500E-1	6.380107E-1	6.721092E-1	6.319517E-1	6.898538E-1	6.684410E-1	6.427607E-1	6.396158E-1	6.820998E-1	6.094748E-1	6.289726E-1	7.387010E-1	6.692498E-1	6.449888E-1	6.401741E-1	6.490786E-1	6.273243E-1	5.985571E-1	6.595997E-1	6.583899E-1	7.350237E-1	6.562721E-1	6.338039E-1	6.527838E-1	6.997119E-1	6.882132E-1	6.351943E-1	6.872886E-1	6.510348E-1	6.765654E-1	6.912693E-1	6.791180E-1	6.969646E-1	6.743206E-1	6.849385E-1	6.311165E-1	7.434785E-1	6.664544E-1	6.635227E-1	6.340343E-1	7.096751E-1	7.118277E-1	6.139280E-1	7.055939E-1	7.110460E-1	6.286580E-1	6.512744E-1	6.485405E-1	7.069073E-1	6.852199E-1	6.315215E-1	6.670247E-1	7.074080E-1	7.150860E-1	6.819032E-1	6.270786E-1	6.578960E-1	6.535127E-1	6.674728E-1	6.599883E-1	6.991174E-1	7.277125E-1	6.917488E-1	6.487502E-1	6.666903E-1	6.628107E-1	6.430216E-1	6.783127E-1	6.338123E-1	6.248001E-1	6.723082E-1	6.503508E-1	6.979240E-1	6.592763E-1	6.446270E-1	6.288045E-1	6.969745E-1	6.489223E-1	6.670009E-1	6.457101E-1	6.508347E-1	6.386502E-1	6.477804E-1	6.580545E-1	6.992231E-1	6.199283E-1	5.959683E-1	6.266394E-1	6.446547E-1	6.862047E-1	6.490075E-1	6.560239E-1	7.034987E-1	6.492979E-1	6.977993E-1	6.304505E-1	7.225500E-1	6.466921E-1	6.484294E-1	6.713608E-1	6.909765E-1	6.901882E-1	6.939267E-1	6.808960E-1	7.132784E-1	6.753648E-1	6.093250E-1	6.771292E-1	7.020515E-1	6.741216E-1	5.699168E-1
2.900020E+2	7.556890E-1	8.112568E-1	7.436170E-1	8.174718E-1	7.407428E-1	7.613872E-1	7.781986E-1	7.911272E-1	7.833527E-1	8.136945E-1	7.867615E-1	7.907697E-1	7.666902E-1	8.005517E-1	7.759184E-1	7.970825E-1	7.866660E-1	7.751349E-1	7.625133E-1	7.941928E-1	7.244986E-1	8.423749E-1	7.360730E-1	7.469324E-1	7.696440E-1	7.866766E-1	7.382607E-1	7.461230E-1	7.760119E-1	7.555918E-1	7.798188E-1	7.561819E-1	7.462843E-1	7.337304E-1	7.544046E-1	7.564798E-1	7.446330E-1	7.964623E-1	7.740056E-1	8.138042E-1	7.385669E-1	7.647637E-1	7.582263E-1	7.436933E-1	7.988210E-1	7.475581E-1	7.827874E-1	7.911174E-1	7.420824E-1	8.167495E-1	7.764781E-1	7.779974E-1	7.334167E-1	8.157475E-1	7.407425E-1	7.402275E-1	7.477909E-1	7.818727E-1	7.459249E-1	7.456297E-1	7.853927E-1	7.435970E-1	7.741729E-1	7.653935E-1	7.470095E-1	7.491715E-1	7.696448E-1	7.499823E-1	7.537611E-1	7.998739E-1	7.512357E-1	8.296220E-1	7.851636E-1	7.144422E-1	7.562699E-1	8.059732E-1	8.490950E-1	7.741365E-1	7.518084E-1	7.759755E-1	8.463515E-1	8.076883E-1	7.282263E-1	7.733244E-1	7.867062E-1	7.956300E-1	7.559937E-1	8.069589E-1	7.867067E-1	7.984997E-1	8.194344E-1	8.385420E-1	7.625331E-1	7.431454E-1	8.006905E-1	7.807148E-1	7.730469E-1	7.659916E-1	7.545187E-1	7.916648E-1	7.559819E-1	7.145573E-1	7.873531E-1	7.531943E-1	8.053180E-1	7.616928E-1	7.551950E-1	7.782402E-1	7.570910E-1	8.041479E-1	7.520129E-1	7.515906E-1	7.776947E-1	8.172529E-1	7.900208E-1	7.964499E-1	8.106848E-1	7.826087E-1	8.053480E-1	7.589303E-1	7.840110E-1	8.069347E-1	7.310945E-1	7.090411E-1	7.864566E-1	7.795227E-1	7.791655E-1	7.526312E-1	7.419100E-1	8.216131E-1	7.425347E-1	7.629264E-1	7.938084E-1	8.014083E-1	7.559041E-1	7.671216E-1	7.980383E-1	7.220916E-1	7.635932E-1	7.969354E-1	8.342931E-1	7.950826E-1	7.707077E-1	7.476752E-1	7.953643E-1	7.590482E-1	7.330345E-1	7.722398E-1	7.789279E-1	8.147475E-1	7.616795E-1	7.554009E-1	7.587330E-1	7.986384E-1	7.650673E-1	8.204911E-1	7.648917E-1	8.026364E-1	7.714015E-1	7.641485E-1	7.980645E-1	7.839664E-1	8.120397E-1	7.633010E-1	7.790185E-1	8.434126E-1	7.438740E-1	7.696712E-1	7.853752E-1	8.403974E-1	8.746715E-1
2.905110E+2	7.984424E-1	8.676925E-1	8.495157E-1	8.444963E-1	7.924134E-1	8.601699E-1	9.176084E-1	9.138041E-1	8.958395E-1	8.809069E-1	8.621086E-1	8.698347E-1	8.475310E-1	8.930975E-1	8.709367E-1	8.715521E-1	8.665485E-1	8.780713E-1	8.604363E-1	8.001247E-1	8.494579E-1	8.180231E-1	8.362724E-1	8.923335E-1	8.933447E-1	8.903617E-1	8.345318E-1	8.414458E-1	9.561728E-1	8.524904E-1	8.765426E-1	8.040731E-1	8.490002E-1	8.580487E-1	8.832899E-1	7.921338E-1	8.279496E-1	8.352895E-1	8.978816E-1	8.467863E-1	7.582537E-1	9.208290E-1	8.246329E-1	8.504864E-1	8.518826E-1	8.400334E-1	8.194157E-1	8.877193E-1	8.723247E-1	8.553530E-1	8.657463E-1	8.945002E-1	8.839052E-1	8.809813E-1	8.565745E-1	8.695045E-1	8.550559E-1	8.062761E-1	8.848619E-1	8.526570E-1	8.330703E-1	8.090382E-1	8.407553E-1	8.299101E-1	9.035476E-1	8.614362E-1	8.904189E-1	9.064663E-1	8.703316E-1	8.727239E-1	8.321396E-1	8.717612E-1	8.682041E-1	8.445026E-1	8.692734E-1	8.431576E-1	8.746732E-1	8.604212E-1	8.384309E-1	8.810621E-1	8.877241E-1	8.342676E-1	8.723058E-1	8.546632E-1	8.690854E-1	8.848658E-1	8.482688E-1	8.776728E-1	8.474345E-1	8.379421E-1	8.541968E-1	8.298071E-1	8.409578E-1	8.800512E-1	7.857026E-1	8.476025E-1	8.279915E-1	8.277471E-1	8.247631E-1	8.580296E-1	8.666859E-1	8.232149E-1	8.486463E-1	8.879919E-1	8.935056E-1	7.992056E-1	8.210572E-1	8.824898E-1	8.562224E-1	8.807074E-1	8.437087E-1	8.328107E-1	8.686732E-1	9.074467E-1	8.141793E-1	7.593606E-1	8.380894E-1	8.458150E-1	8.060854E-1	8.511033E-1	9.269883E-1	8.719054E-1	8.200415E-1	8.212454E-1	8.307196E-1	8.464309E-1	8.815477E-1	8.350115E-1	8.143045E-1	8.391311E-1	8.776844E-1	8.458838E-1	9.110790E-1	9.137029E-1	8.655793E-1	8.256486E-1	8.654372E-1	8.438693E-1	8.378623E-1	9.124998E-1	8.598944E-1	7.892576E-1	8.904330E-1	8.336533E-1	8.194683E-1	8.424487E-1	8.649489E-1	7.962458E-1	8.347696E-1	8.977100E-1	8.765094E-1	9.067817E-1	8.711257E-1	9.146701E-1	8.674180E-1	8.003595E-1	8.444056E-1	8.729740E-1	8.981879E-1	8.896529E-1	8.879376E-1	8.897764E-1	8.140741E-1	8.718556E-1	8.178652E-1	9.095762E-1	8.805591E-1	8.861387E-1	9.226909E-1	9.291576E-1	8.616986E-1
2.910070E+2	8.676915E-1	9.092263E-1	9.953972E-1	8.993533E-1	9.373929E-1	9.344903E-1	9.353230E-1	9.843569E-1	9.164223E-1	9.244943E-1	8.805452E-1	9.501864E-1	9.843118E-1	9.123299E-1	9.121506E-1	9.447864E-1	9.104083E-1	9.002154E-1	9.609272E-1	9.043580E-1	8.832134E-1	9.093236E-1	9.171161E-1	8.901399E-1	9.108601E-1	9.495023E-1	8.744575E-1	8.602261E-1	8.760715E-1	8.489920E-1	9.373594E-1	9.073933E-1	9.093668E-1	9.111880E-1	8.964320E-1	9.225136E-1	8.833382E-1	9.540974E-1	8.952692E-1	8.381248E-1	8.419678E-1	9.125277E-1	8.504970E-1	8.402969E-1	9.035778E-1	9.394561E-1	9.241555E-1	8.695728E-1	9.040162E-1	8.922404E-1	9.184570E-1	8.579174E-1	8.586641E-1	9.224857E-1	8.757904E-1	8.499368E-1	9.151171E-1	9.216618E-1	8.960179E-1	8.934170E-1	8.751637E-1	9.595254E-1	9.163344E-1	8.887909E-1	9.000872E-1	8.937699E-1	8.655956E-1	9.078142E-1	9.700274E-1	9.125346E-1	9.411348E-1	8.966890E-1	8.446296E-1	8.760585E-1	8.740956E-1	8.760385E-1	9.116678E-1	9.249179E-1	9.345484E-1	9.083214E-1	9.405910E-1	9.643948E-1	8.697348E-1	9.165358E-1	8.940418E-1	9.180222E-1	9.117960E-1	8.845049E-1	9.250575E-1	8.991747E-1	8.588827E-1	8.358592E-1	9.131706E-1	8.901602E-1	9.355993E-1	9.354578E-1	9.227720E-1	8.887744E-1	8.788094E-1	9.206060E-1	9.011135E-1	9.080628E-1	8.902144E-1	9.291030E-1	8.919871E-1	9.120849E-1	9.122919E-1	9.140118E-1	9.321622E-1	8.925916E-1	8.928014E-1	9.066241E-1	9.279789E-1	9.385378E-1	8.627568E-1	9.044203E-1	8.769764E-1	9.347553E-1	8.779286E-1	8.965146E-1	8.978296E-1	8.990047E-1	8.728899E-1	8.858650E-1	8.101618E-1	9.065676E-1	8.883304E-1	8.977080E-1	9.139515E-1	9.224810E-1	9.401794E-1	8.895827E-1	9.148508E-1	9.326175E-1	8.850306E-1	9.080683E-1	9.367694E-1	9.164414E-1	9.341019E-1	9.380058E-1	9.269966E-1	8.975260E-1	9.579321E-1	9.601003E-1	9.310372E-1	9.327553E-1	9.016765E-1	9.060538E-1	9.623882E-1	9.474631E-1	9.031983E-1	8.906185E-1	9.225997E-1	9.530190E-1	8.852196E-1	8.624307E-1	9.022182E-1	9.285591E-1	9.287969E-1	9.115676E-1	8.534155E-1	9.132522E-1	9.917990E-1	9.321746E-1	9.253816E-1	9.295517E-1	9.685204E-1	9.281253E-1	9.056626E-1	9.915083E-1	8.755141E-1
2.915110E+2	1.116586E+0	1.259947E+0	1.147377E+0	1.148574E+0	1.125061E+0	1.226987E+0	1.134155E+0	1.195136E+0	1.134712E+0	1.135652E+0	1.191206E+0	1.091684E+0	1.136902E+0	1.132774E+0	1.186247E+0	1.217186E+0	1.081742E+0	1.169128E+0	1.132604E+0	1.123802E+0	1.145753E+0	1.162918E+0	1.121388E+0	1.087774E+0	1.155608E+0	1.161761E+0	1.069788E+0	1.058540E+0	1.174122E+0	1.135148E+0	1.124486E+0	1.155630E+0	1.097896E+0	1.162839E+0	1.153186E+0	1.082687E+0	1.141309E+0	1.105865E+0	1.089309E+0	1.109847E+0	1.129517E+0	1.208372E+0	1.171186E+0	1.144082E+0	1.093422E+0	1.070846E+0	1.219601E+0	1.165276E+0	1.169608E+0	1.146673E+0	1.151330E+0	1.118266E+0	1.140310E+0	1.143678E+0	1.127068E+0	1.098004E+0	1.137289E+0	1.076349E+0	1.112198E+0	1.124963E+0	1.150832E+0	1.066733E+0	1.149353E+0	1.157626E+0	1.113159E+0	1.166894E+0	1.135582E+0	1.129433E+0	1.116112E+0	1.125594E+0	1.192080E+0	1.133351E+0	1.125115E+0	1.156008E+0	1.193665E+0	1.118694E+0	1.257480E+0	1.093278E+0	1.213697E+0	1.155210E+0	1.170397E+0	1.140418E+0	1.068593E+0	1.064353E+0	1.196764E+0	1.165611E+0	1.143462E+0	1.149985E+0	1.287158E+0	1.107911E+0	1.108065E+0	1.029652E+0	1.205333E+0	1.194799E+0	1.131577E+0	1.133576E+0	1.116651E+0	1.180656E+0	1.142333E+0	1.126882E+0	1.119199E+0	1.141099E+0	1.059057E+0	1.182340E+0	1.141698E+0	1.164984E+0	1.123746E+0	1.170411E+0	1.131489E+0	1.167030E+0	1.100838E+0	1.091376E+0	1.114193E+0	1.155117E+0	1.149262E+0	1.159157E+0	1.063516E+0	1.213498E+0	1.122858E+0	1.165579E+0	1.129826E+0	1.202120E+0	1.099742E+0	1.098396E+0	1.079345E+0	1.112879E+0	1.168738E+0	1.110692E+0	1.138535E+0	1.102565E+0	1.152286E+0	1.172751E+0	1.112457E+0	1.191033E+0	1.150400E+0	1.180895E+0	1.153562E+0	1.181261E+0	1.103268E+0	1.152524E+0	1.186851E+0	1.148961E+0	1.242711E+0	1.146512E+0	1.123625E+0	1.111620E+0	1.132136E+0	1.115088E+0	1.157198E+0	1.191286E+0	1.100036E+0	1.112684E+0	1.135368E+0	1.198818E+0	1.153144E+0	1.150220E+0	1.120679E+0	1.178687E+0	1.143306E+0	1.116002E+0	1.223640E+0	1.136827E+0	1.137829E+0	1.165759E+0	1.196792E+0	1.112571E+0	1.088644E+0	1.134737E+0	1.051609E+0	1.162366E+0	1.194510E+0
2.920030E+2	1.054510E+0	1.082341E+0	1.124839E+0	1.138793E+0	1.102793E+0	1.169309E+0	1.114226E+0	1.122797E+0	1.114326E+0	1.075648E+0	1.100780E+0	1.133164E+0	1.151310E+0	1.125913E+0	1.136324E+0	1.096022E+0	1.095960E+0	1.168918E+0	1.174515E+0	1.017816E+0	1.075198E+0	1.088804E+0	1.096601E+0	1.091357E+0	1.107387E+0	1.171003E+0	1.062801E+0	1.125029E+0	1.132966E+0	1.105997E+0	1.128748E+0	1.095695E+0	1.208806E+0	1.138032E+0	1.113372E+0	1.094013E+0	1.134124E+0	1.093751E+0	1.072145E+0	1.064193E+0	1.060312E+0	1.128846E+0	1.133666E+0	1.082032E+0	1.118318E+0	1.098094E+0	1.136745E+0	1.117801E+0	1.084944E+0	1.072120E+0	1.137594E+0	1.076432E+0	1.118692E+0	1.115801E+0	1.097934E+0	1.105060E+0	1.063491E+0	1.042582E+0	1.122346E+0	1.105638E+0	1.064671E+0	1.147328E+0	1.078382E+0	1.095990E+0	1.095985E+0	1.122575E+0	1.065118E+0	1.109061E+0	1.131515E+0	1.134445E+0	1.080067E+0	1.087996E+0	1.096073E+0	1.072881E+0	1.075824E+0	1.058302E+0	1.149270E+0	1.126233E+0	1.082022E+0	1.133569E+0	1.183018E+0	1.140492E+0	1.065230E+0	1.143380E+0	1.090052E+0	1.087419E+0	1.101999E+0	1.073244E+0	1.063797E+0	1.084745E+0	1.138522E+0	1.107034E+0	1.081059E+0	1.050060E+0	1.082127E+0	1.141703E+0	1.098644E+0	1.106236E+0	1.052503E+0	1.078686E+0	1.123176E+0	1.121218E+0	1.065557E+0	1.118855E+0	1.237879E+0	1.100277E+0	1.116586E+0	1.035739E+0	1.110694E+0	1.151839E+0	1.063381E+0	1.159217E+0	1.093055E+0	1.101769E+0	1.082470E+0	1.120337E+0	1.123178E+0	1.140757E+0	1.074640E+0	1.154983E+0	1.126051E+0	1.119549E+0	1.080803E+0	1.126484E+0	1.054275E+0	1.143520E+0	1.105346E+0	1.112295E+0	1.111253E+0	1.149240E+0	1.104605E+0	1.161995E+0	1.104506E+0	1.013338E+0	1.106359E+0	1.072901E+0	1.093812E+0	1.121034E+0	1.082217E+0	1.104003E+0	1.077615E+0	1.033447E+0	1.137540E+0	1.136608E+0	1.079495E+0	1.096577E+0	1.077468E+0	1.086930E+0	1.123380E+0	1.128443E+0	1.053145E+0	1.057839E+0	1.093881E+0	1.098652E+0	1.153230E+0	1.134262E+0	1.074946E+0	1.109005E+0	1.175249E+0	1.114850E+0	1.127060E+0	1.158858E+0	1.102618E+0	1.128478E+0	1.195410E+0	1.210917E+0	1.117398E+0	1.126161E+0	1.093733E+0	9.943819E-1	1.132013E+0
2.925020E+2	1.048149E+0	1.189117E+0	1.085685E+0	1.055183E+0	1.072871E+0	1.118308E+0	1.100617E+0	1.122079E+0	1.097293E+0	1.140220E+0	1.102975E+0	1.087333E+0	1.032772E+0	1.062503E+0	1.066440E+0	1.132778E+0	1.058338E+0	1.074094E+0	1.093197E+0	1.079882E+0	1.119759E+0	1.063654E+0	1.060149E+0	1.061570E+0	1.091456E+0	1.130958E+0	1.028217E+0	1.025375E+0	1.017814E+0	1.063666E+0	1.049828E+0	1.065729E+0	1.025798E+0	1.106737E+0	1.103930E+0	1.096356E+0	1.123006E+0	1.095016E+0	1.062787E+0	1.090924E+0	1.000985E+0	1.098236E+0	1.027368E+0	1.030835E+0	1.122182E+0	1.055291E+0	1.004568E+0	1.066080E+0	1.063260E+0	1.071362E+0	1.041596E+0	1.106048E+0	1.045291E+0	1.084793E+0	9.767301E-1	9.560304E-1	1.081301E+0	1.043591E+0	1.103614E+0	1.076101E+0	1.059462E+0	1.055036E+0	1.073725E+0	1.065838E+0	1.063312E+0	1.121382E+0	1.078058E+0	1.132152E+0	1.076310E+0	1.105361E+0	1.089238E+0	1.021584E+0	1.081178E+0	1.040163E+0	1.083627E+0	1.118259E+0	1.086993E+0	1.097322E+0	1.056302E+0	1.035377E+0	1.076864E+0	1.142151E+0	1.074033E+0	1.086686E+0	1.083091E+0	1.037795E+0	1.009439E+0	1.074816E+0	1.144054E+0	1.060282E+0	1.038079E+0	1.027394E+0	1.125407E+0	1.067374E+0	1.058088E+0	1.078960E+0	1.087385E+0	1.036216E+0	1.095474E+0	1.037392E+0	1.126534E+0	1.099576E+0	1.100904E+0	1.116738E+0	1.082594E+0	1.093948E+0	1.080101E+0	1.112443E+0	1.105188E+0	1.029482E+0	1.051032E+0	1.048167E+0	1.074713E+0	1.060307E+0	1.072198E+0	1.072226E+0	1.067589E+0	1.058086E+0	1.190745E+0	1.068887E+0	1.161181E+0	9.848688E-1	1.076134E+0	1.003778E+0	1.059540E+0	1.092980E+0	1.035915E+0	1.071578E+0	1.067583E+0	1.050400E+0	1.031451E+0	1.056279E+0	1.072352E+0	1.119877E+0	1.071662E+0	9.916779E-1	1.161837E+0	1.048222E+0	1.068068E+0	1.088956E+0	1.099195E+0	1.054413E+0	1.068183E+0	9.747737E-1	1.064628E+0	1.156349E+0	1.036231E+0	1.084343E+0	1.061564E+0	1.135578E+0	1.028926E+0	1.065555E+0	1.032322E+0	1.036718E+0	1.148095E+0	1.124200E+0	1.062412E+0	1.046548E+0	1.107406E+0	1.055681E+0	1.074747E+0	1.076811E+0	1.122633E+0	1.113385E+0	1.114702E+0	1.110288E+0	1.050810E+0	1.109065E+0	1.059860E+0	1.073405E+0	9.850832E-1
2.930040E+2	9.345897E-1	8.687097E-1	8.380552E-1	9.092313E-1	8.764786E-1	9.392373E-1	9.018484E-1	8.707588E-1	8.656744E-1	9.181071E-1	9.303922E-1	9.165560E-1	9.116182E-1	8.679109E-1	8.839643E-1	9.462136E-1	9.202188E-1	9.105108E-1	8.696459E-1	8.765225E-1	9.284585E-1	8.792352E-1	9.059326E-1	9.374866E-1	9.313802E-1	9.115570E-1	8.370927E-1	9.031194E-1	1.010867E+0	8.586509E-1	8.698906E-1	8.655505E-1	9.394419E-1	9.251557E-1	8.713933E-1	9.205820E-1	8.449635E-1	8.565309E-1	8.967805E-1	8.770946E-1	8.974286E-1	9.026431E-1	9.036389E-1	9.056830E-1	8.741043E-1	8.884176E-1	8.766754E-1	9.038309E-1	9.198169E-1	8.735709E-1	9.023567E-1	8.944373E-1	8.747710E-1	8.460362E-1	8.702919E-1	8.871611E-1	8.941698E-1	9.712977E-1	8.809121E-1	9.204486E-1	8.605113E-1	9.059250E-1	8.646536E-1	9.138029E-1	8.818914E-1	8.970880E-1	9.335409E-1	9.096433E-1	9.018996E-1	8.924935E-1	8.982284E-1	9.098575E-1	8.694368E-1	8.583676E-1	8.576160E-1	9.009507E-1	9.245798E-1	8.643486E-1	8.625721E-1	9.179518E-1	8.806740E-1	9.206320E-1	8.863275E-1	9.476077E-1	8.946765E-1	8.655759E-1	8.462691E-1	8.746191E-1	9.742388E-1	8.648627E-1	9.029094E-1	9.251653E-1	9.509871E-1	8.992943E-1	9.534142E-1	8.991318E-1	8.966766E-1	8.894637E-1	9.064119E-1	8.824138E-1	8.954359E-1	8.709266E-1	9.393550E-1	9.239506E-1	8.512760E-1	9.160522E-1	8.751401E-1	9.297763E-1	9.295420E-1	8.643167E-1	8.755965E-1	9.319047E-1	8.200634E-1	8.736176E-1	8.729432E-1	8.795243E-1	8.703743E-1	9.161941E-1	8.922445E-1	9.203514E-1	8.597789E-1	8.738718E-1	8.555428E-1	9.327988E-1	9.188146E-1	9.324089E-1	9.597406E-1	8.885990E-1	8.800836E-1	8.725822E-1	9.562429E-1	8.892305E-1	8.846365E-1	8.979287E-1	8.364289E-1	9.062631E-1	9.901592E-1	9.053764E-1	8.636205E-1	9.324140E-1	9.161118E-1	9.149756E-1	9.223046E-1	8.992992E-1	8.569790E-1	9.330419E-1	8.677867E-1	8.672177E-1	8.734225E-1	8.833932E-1	9.067512E-1	9.233225E-1	1.004354E+0	8.538775E-1	8.994023E-1	8.961894E-1	8.944694E-1	9.009260E-1	9.081050E-1	8.599205E-1	9.570192E-1	9.167701E-1	8.703328E-1	9.176583E-1	8.843950E-1	9.864685E-1	9.352724E-1	9.160693E-1	9.056934E-1	9.902999E-1	9.794326E-1
2.935090E+2	9.542740E-1	1.006027E+0	1.070952E+0	8.888780E-1	9.618465E-1	9.708396E-1	9.584675E-1	9.677873E-1	9.284738E-1	9.726124E-1	1.024313E+0	9.532803E-1	1.011501E+0	9.592015E-1	9.629267E-1	9.932828E-1	9.606409E-1	9.921099E-1	9.716771E-1	9.715852E-1	9.768775E-1	9.931633E-1	9.704027E-1	9.142517E-1	9.981197E-1	9.916172E-1	9.746208E-1	9.574294E-1	9.734592E-1	1.003686E+0	1.026563E+0	9.338946E-1	9.768414E-1	1.036595E+0	9.743818E-1	9.533638E-1	9.932980E-1	9.917103E-1	9.233981E-1	9.494406E-1	1.023391E+0	1.034918E+0	9.927868E-1	9.957812E-1	9.950622E-1	9.913370E-1	9.912018E-1	9.842382E-1	9.511179E-1	9.395477E-1	9.985349E-1	9.173203E-1	9.866386E-1	1.020318E+0	9.918381E-1	9.641728E-1	9.560393E-1	1.036528E+0	9.594683E-1	1.015673E+0	9.771726E-1	9.677770E-1	9.044258E-1	9.608266E-1	1.007498E+0	1.003914E+0	1.013487E+0	9.387830E-1	9.668490E-1	1.033973E+0	1.000198E+0	1.046665E+0	8.967294E-1	9.663463E-1	9.455535E-1	9.491657E-1	9.869594E-1	1.023458E+0	9.786878E-1	1.002826E+0	9.838160E-1	9.637279E-1	9.937083E-1	9.746108E-1	1.005190E+0	1.005286E+0	9.762857E-1	9.571133E-1	9.830135E-1	9.910797E-1	9.825345E-1	9.273741E-1	1.014156E+0	1.003719E+0	9.667322E-1	1.019773E+0	1.035547E+0	9.879194E-1	9.931818E-1	1.030134E+0	9.494761E-1	9.710546E-1	9.854800E-1	1.038638E+0	1.035082E+0	9.432249E-1	9.940173E-1	1.020330E+0	9.716910E-1	1.038989E+0	9.997899E-1	9.862271E-1	9.742490E-1	9.595630E-1	9.827889E-1	9.795333E-1	9.340519E-1	9.817928E-1	9.820882E-1	1.014041E+0	1.056427E+0	9.759540E-1	9.440151E-1	9.303957E-1	9.540327E-1	9.598391E-1	9.722407E-1	9.594770E-1	9.620898E-1	1.022751E+0	9.325856E-1	1.045055E+0	9.914115E-1	1.013885E+0	9.690718E-1	9.667520E-1	9.796587E-1	9.917365E-1	9.353093E-1	9.206876E-1	9.645575E-1	9.937813E-1	1.028865E+0	9.736522E-1	9.194514E-1	9.122270E-1	9.975600E-1	1.001240E+0	1.021989E+0	9.966083E-1	9.619283E-1	9.388958E-1	9.258190E-1	9.435646E-1	1.037526E+0	1.060077E+0	9.631323E-1	1.031445E+0	1.032449E+0	9.669264E-1	9.264737E-1	1.014712E+0	9.968232E-1	9.854053E-1	9.803513E-1	9.889922E-1	9.365916E-1	9.765526E-1	1.031066E+0	9.890746E-1	1.074514E+0
2.940070E+2	1.066265E+0	1.115857E+0	1.118787E+0	1.072558E+0	1.097414E+0	1.082861E+0	1.025394E+0	1.049202E+0	1.104064E+0	1.051419E+0	1.042614E+0	1.106520E+0	1.075541E+0	1.052309E+0	1.048343E+0	1.089916E+0	1.104463E+0	1.049681E+0	1.100484E+0	1.036085E+0	1.037548E+0	1.093891E+0	1.076424E+0	1.060985E+0	1.063254E+0	1.102856E+0	1.057637E+0	1.033192E+0	1.139432E+0	1.081665E+0	1.076573E+0	1.106717E+0	9.948962E-1	1.109279E+0	1.108510E+0	1.091816E+0	1.099979E+0	1.019985E+0	1.066273E+0	1.084508E+0	1.022201E+0	1.077846E+0	1.031924E+0	1.063683E+0	1.032327E+0	1.043985E+0	1.058537E+0	1.092173E+0	1.082036E+0	1.041166E+0	1.100869E+0	1.026010E+0	1.034870E+0	1.040041E+0	1.095545E+0	1.051074E+0	1.098831E+0	1.105045E+0	1.116040E+0	1.065498E+0	1.009052E+0	1.042945E+0	1.072412E+0	9.994986E-1	1.071015E+0	1.120021E+0	1.055401E+0	1.126800E+0	1.028196E+0	1.091472E+0	1.061350E+0	1.096256E+0	1.072942E+0	1.059753E+0	1.088263E+0	1.084390E+0	1.027780E+0	1.105010E+0	1.122090E+0	1.040993E+0	1.181647E+0	1.063045E+0	1.030863E+0	1.085727E+0	1.134288E+0	1.084158E+0	1.084510E+0	1.059533E+0	1.094451E+0	1.008070E+0	1.043778E+0	1.060470E+0	1.079986E+0	1.131979E+0	1.133880E+0	1.127223E+0	1.049944E+0	1.044161E+0	1.067318E+0	1.036927E+0	1.109830E+0	1.019544E+0	9.965778E-1	1.080362E+0	1.140346E+0	1.014724E+0	1.054245E+0	1.082871E+0	1.077915E+0	1.081341E+0	1.092567E+0	1.089931E+0	1.049146E+0	1.119357E+0	1.077481E+0	1.019280E+0	1.030180E+0	1.082643E+0	1.082105E+0	1.096889E+0	1.060958E+0	1.105471E+0	1.053046E+0	1.100842E+0	1.028584E+0	1.031549E+0	1.025530E+0	1.067707E+0	1.037552E+0	1.106144E+0	1.100157E+0	1.049981E+0	1.086142E+0	1.120591E+0	1.072069E+0	1.065392E+0	1.100089E+0	1.066388E+0	1.082082E+0	1.165218E+0	1.055905E+0	1.057162E+0	1.049875E+0	1.073360E+0	1.076551E+0	1.057369E+0	9.983354E-1	1.059798E+0	1.014271E+0	1.092673E+0	1.079492E+0	1.115723E+0	1.050524E+0	1.068849E+0	1.058064E+0	1.125844E+0	1.036186E+0	1.129120E+0	1.077232E+0	1.051472E+0	1.104375E+0	1.043859E+0	1.081738E+0	1.069582E+0	1.112466E+0	1.108971E+0	1.080403E+0	1.062786E+0	1.002792E+0	1.095909E+0	1.007366E+0
2.945030E+2	1.145640E+0	1.114594E+0	1.073031E+0	1.103129E+0	1.130714E+0	1.152137E+0	1.116483E+0	1.171423E+0	1.108623E+0	1.126876E+0	1.089073E+0	1.056748E+0	1.136413E+0	1.142751E+0	1.127079E+0	1.198779E+0	1.159947E+0	1.159654E+0	1.148779E+0	1.096618E+0	1.128044E+0	1.058861E+0	1.120099E+0	1.143291E+0	1.123902E+0	1.135288E+0	1.101049E+0	1.131304E+0	1.135961E+0	1.101285E+0	1.135404E+0	1.157869E+0	1.124750E+0	1.122143E+0	1.099723E+0	1.078759E+0	1.084155E+0	1.176013E+0	1.163514E+0	1.136610E+0	1.079139E+0	1.133060E+0	1.104541E+0	1.088653E+0	1.181390E+0	1.163322E+0	1.110583E+0	1.095652E+0	1.101080E+0	1.143871E+0	1.078972E+0	1.074403E+0	1.095330E+0	1.102130E+0	1.098796E+0	1.101210E+0	1.062658E+0	1.070891E+0	1.103323E+0	1.096686E+0	1.034730E+0	1.089181E+0	1.136918E+0	1.102933E+0	1.130886E+0	1.117172E+0	1.149119E+0	1.138252E+0	1.095959E+0	1.143071E+0	1.146763E+0	1.127824E+0	1.135188E+0	1.120060E+0	1.093800E+0	1.113656E+0	1.156177E+0	1.050461E+0	1.060317E+0	1.092455E+0	1.138950E+0	1.104560E+0	1.077886E+0	1.130556E+0	1.087692E+0	1.158324E+0	1.116312E+0	1.114726E+0	1.131639E+0	1.111335E+0	1.110007E+0	1.154154E+0	1.132934E+0	1.074841E+0	1.123732E+0	1.151734E+0	1.128385E+0	1.118395E+0	1.052631E+0	1.106982E+0	1.101668E+0	1.121296E+0	1.103168E+0	1.129140E+0	1.093861E+0	1.090838E+0	1.091211E+0	1.155984E+0	1.091036E+0	1.176643E+0	1.109937E+0	1.137394E+0	1.130419E+0	1.080665E+0	1.087088E+0	1.104853E+0	1.116522E+0	1.091537E+0	1.102984E+0	1.189259E+0	1.145046E+0	1.079266E+0	1.067581E+0	1.174049E+0	1.136831E+0	1.189692E+0	1.114735E+0	1.107928E+0	1.094929E+0	1.098223E+0	1.121519E+0	1.170021E+0	1.070138E+0	1.129854E+0	1.094949E+0	1.111878E+0	1.096387E+0	1.109633E+0	1.073746E+0	1.116469E+0	1.113612E+0	1.104138E+0	1.147425E+0	1.081583E+0	1.070741E+0	1.139767E+0	1.080126E+0	1.117869E+0	1.134336E+0	1.165816E+0	1.049671E+0	1.104348E+0	1.112126E+0	1.099607E+0	1.159000E+0	1.142507E+0	1.103517E+0	1.131984E+0	1.125677E+0	1.129968E+0	1.091880E+0	1.114201E+0	1.107297E+0	1.123190E+0	1.128815E+0	1.096368E+0	1.086344E+0	1.166498E+0	1.072410E+0	1.245136E+0	1.071760E+0
2.950070E+2	9.868661E-1	1.055588E+0	1.048660E+0	1.007179E+0	9.966102E-1	1.036104E+0	1.115917E+0	1.037341E+0	1.074061E+0	1.040689E+0	1.010428E+0	1.030980E+0	1.049793E+0	1.045904E+0	1.059749E+0	1.055411E+0	9.399269E-1	1.050301E+0	1.025537E+0	9.612519E-1	1.037584E+0	1.009880E+0	1.039857E+0	1.052510E+0	1.037499E+0	1.061097E+0	1.018596E+0	1.050498E+0	1.081713E+0	9.728580E-1	9.993653E-1	1.080974E+0	1.054628E+0	1.102070E+0	1.061322E+0	9.572132E-1	1.028371E+0	1.047973E+0	1.035275E+0	1.045018E+0	1.038646E+0	1.019809E+0	1.067698E+0	1.028291E+0	1.017578E+0	1.053093E+0	1.063594E+0	1.010514E+0	1.008553E+0	9.873349E-1	1.067199E+0	9.993278E-1	1.004759E+0	1.045088E+0	1.094274E+0	9.883842E-1	1.070958E+0	1.047936E+0	1.015135E+0	1.019141E+0	1.094593E+0	1.019149E+0	1.031551E+0	1.043261E+0	1.061180E+0	1.029401E+0	1.013632E+0	9.990401E-1	9.935970E-1	1.076379E+0	1.057063E+0	1.049247E+0	1.041993E+0	1.026500E+0	1.036935E+0	1.075089E+0	1.017271E+0	1.028756E+0	1.050879E+0	1.034742E+0	1.102946E+0	1.036253E+0	1.027469E+0	1.029699E+0	1.064408E+0	9.853902E-1	1.077918E+0	1.051562E+0	1.010285E+0	9.923777E-1	1.072559E+0	1.027371E+0	1.050173E+0	1.041357E+0	1.021223E+0	1.052886E+0	1.081100E+0	1.049070E+0	1.034317E+0	1.028436E+0	1.054587E+0	1.001737E+0	1.022681E+0	1.060265E+0	1.088863E+0	1.074229E+0	1.088603E+0	1.079264E+0	1.050828E+0	1.064997E+0	1.061823E+0	1.056073E+0	1.010428E+0	1.066162E+0	1.026777E+0	1.096214E+0	1.015272E+0	1.056317E+0	1.043787E+0	1.047416E+0	1.075417E+0	1.086575E+0	1.020855E+0	1.023219E+0	1.037525E+0	9.996491E-1	1.050885E+0	1.082856E+0	1.011306E+0	1.075464E+0	1.070845E+0	1.048810E+0	1.043218E+0	1.029125E+0	1.078221E+0	1.058684E+0	1.031325E+0	1.031356E+0	1.012671E+0	1.070126E+0	1.110732E+0	1.013263E+0	1.084949E+0	1.015655E+0	1.083773E+0	1.059427E+0	1.012232E+0	1.020924E+0	1.017283E+0	1.065001E+0	9.786318E-1	1.053439E+0	1.009929E+0	9.815283E-1	1.066381E+0	1.027739E+0	1.018306E+0	1.034137E+0	1.037008E+0	1.058400E+0	1.120331E+0	1.000670E+0	1.049728E+0	9.956383E-1	1.015863E+0	1.035733E+0	1.034069E+0	1.031301E+0	1.073496E+0	1.198085E+0	1.036463E+0
2.955070E+2	1.062553E+0	1.082722E+0	1.053097E+0	1.029573E+0	1.045907E+0	1.014314E+0	1.048435E+0	1.024910E+0	1.064185E+0	1.082616E+0	1.037759E+0	1.088194E+0	1.020769E+0	1.082302E+0	1.043176E+0	1.068039E+0	1.056759E+0	1.008938E+0	1.081705E+0	1.037312E+0	1.066860E+0	1.035859E+0	1.060848E+0	1.013103E+0	1.055302E+0	1.086006E+0	1.104035E+0	1.066600E+0	1.062447E+0	1.057263E+0	1.060408E+0	1.006863E+0	1.033162E+0	1.040745E+0	1.053981E+0	9.820047E-1	9.974163E-1	1.082006E+0	1.028323E+0	1.051179E+0	1.017577E+0	1.024617E+0	1.036905E+0	1.043284E+0	1.062606E+0	9.901243E-1	1.028951E+0	1.067232E+0	1.035186E+0	9.819563E-1	1.051330E+0	1.034757E+0	1.049280E+0	1.021343E+0	1.047556E+0	1.042153E+0	1.023467E+0	1.061071E+0	1.026342E+0	9.942054E-1	1.041753E+0	1.051645E+0	1.050491E+0	1.041188E+0	1.120927E+0	1.012107E+0	1.061011E+0	1.073393E+0	1.032458E+0	1.049499E+0	1.028319E+0	1.028576E+0	1.030127E+0	9.838531E-1	1.006803E+0	1.062229E+0	1.025357E+0	1.013081E+0	1.053731E+0	9.904426E-1	1.044520E+0	1.027530E+0	1.054047E+0	1.101984E+0	1.015346E+0	1.087450E+0	1.084342E+0	9.888102E-1	1.047742E+0	9.632947E-1	1.024950E+0	1.062834E+0	1.024733E+0	1.037938E+0	1.072800E+0	1.075183E+0	1.000452E+0	1.073239E+0	1.028447E+0	1.007253E+0	1.046590E+0	1.043979E+0	1.026172E+0	1.055366E+0	1.037576E+0	1.080066E+0	1.011680E+0	1.060933E+0	1.021696E+0	1.071041E+0	1.058976E+0	1.067270E+0	1.072404E+0	1.030403E+0	1.023819E+0	1.017998E+0	1.010462E+0	1.072009E+0	1.015083E+0	1.027437E+0	1.079645E+0	1.086371E+0	1.053238E+0	1.068273E+0	1.037294E+0	1.080424E+0	1.015498E+0	1.011109E+0	9.954232E-1	1.097352E+0	1.090900E+0	1.034071E+0	1.020880E+0	1.060096E+0	1.075436E+0	9.971351E-1	1.076648E+0	1.031324E+0	1.002784E+0	1.056911E+0	1.040705E+0	1.034912E+0	1.042361E+0	1.039019E+0	1.011583E+0	1.047255E+0	1.029209E+0	1.037605E+0	1.073132E+0	1.031455E+0	1.041475E+0	1.067177E+0	1.031375E+0	1.022261E+0	1.067155E+0	1.048855E+0	1.049473E+0	1.080824E+0	1.053465E+0	1.034737E+0	9.642220E-1	1.028111E+0	1.095967E+0	1.081870E+0	1.079633E+0	1.064084E+0	9.901487E-1	9.988292E-1	1.007858E+0	1.078993E+0	1.136622E+0
2.960050E+2	1.208785E+0	1.246376E+0	1.246122E+0	1.159644E+0	1.172542E+0	1.248657E+0	1.210144E+0	1.223918E+0	1.247812E+0	1.156879E+0	1.194891E+0	1.234288E+0	1.229266E+0	1.184193E+0	1.186163E+0	1.145307E+0	1.147448E+0	1.172641E+0	1.201887E+0	1.188215E+0	1.135458E+0	1.156571E+0	1.279905E+0	1.136178E+0	1.197714E+0	1.254197E+0	1.203063E+0	1.123366E+0	1.257576E+0	1.202304E+0	1.233528E+0	1.224384E+0	1.212584E+0	1.213123E+0	1.161887E+0	1.209732E+0	1.198500E+0	1.237646E+0	1.205251E+0	1.172627E+0	1.148961E+0	1.259811E+0	1.245113E+0	1.190184E+0	1.199506E+0	1.198026E+0	1.149225E+0	1.187628E+0	1.235553E+0	1.186920E+0	1.245995E+0	1.179376E+0	1.197427E+0	1.158303E+0	1.201433E+0	1.191695E+0	1.180737E+0	1.259153E+0	1.224363E+0	1.215777E+0	1.189349E+0	1.184544E+0	1.176144E+0	1.187906E+0	1.207696E+0	1.169225E+0	1.240927E+0	1.218522E+0	1.160004E+0	1.157132E+0	1.224268E+0	1.154123E+0	1.204095E+0	1.211384E+0	1.176006E+0	1.192946E+0	1.269414E+0	1.185705E+0	1.182417E+0	1.180897E+0	1.164293E+0	1.206486E+0	1.129395E+0	1.164469E+0	1.136353E+0	1.178697E+0	1.206076E+0	1.192406E+0	1.259564E+0	1.184270E+0	1.198038E+0	1.134523E+0	1.195409E+0	1.174081E+0	1.254227E+0	1.187548E+0	1.178101E+0	1.150901E+0	1.168527E+0	1.174382E+0	1.215519E+0	1.206612E+0	1.239457E+0	1.217665E+0	1.236579E+0	1.219625E+0	1.135681E+0	1.242329E+0	1.162027E+0	1.207832E+0	1.169664E+0	1.155303E+0	1.195499E+0	1.202520E+0	1.139364E+0	1.174505E+0	1.262651E+0	1.193530E+0	1.156787E+0	1.189286E+0	1.244324E+0	1.222762E+0	1.186883E+0	1.198442E+0	1.155395E+0	1.202559E+0	1.158931E+0	1.249573E+0	1.159961E+0	1.140186E+0	1.212575E+0	1.209391E+0	1.127155E+0	1.244732E+0	1.179141E+0	1.222471E+0	1.217778E+0	1.149858E+0	1.140526E+0	1.206428E+0	1.179283E+0	1.170923E+0	1.253588E+0	1.178867E+0	1.174481E+0	1.135223E+0	1.242434E+0	1.135649E+0	1.246338E+0	1.224797E+0	1.152983E+0	1.224118E+0	1.180882E+0	1.257123E+0	1.192560E+0	1.175733E+0	1.179341E+0	1.202924E+0	1.206421E+0	1.180906E+0	1.200862E+0	1.180033E+0	1.238551E+0	1.253527E+0	1.193345E+0	1.200300E+0	1.132283E+0	1.177528E+0	1.213143E+0	1.292358E+0	1.277219E+0
2.965010E+2	1.132998E+0	1.084659E+0	1.129178E+0	1.075613E+0	1.097000E+0	1.100267E+0	1.146494E+0	1.160053E+0	1.093262E+0	1.124075E+0	1.074558E+0	1.114365E+0	1.125435E+0	1.135187E+0	1.082898E+0	1.109813E+0	1.109775E+0	1.113686E+0	1.128393E+0	1.099180E+0	1.148610E+0	1.074900E+0	1.083835E+0	1.153757E+0	1.081072E+0	1.134796E+0	1.106678E+0	1.104286E+0	1.137237E+0	1.108704E+0	1.129841E+0	1.082907E+0	1.092902E+0	1.153659E+0	1.108580E+0	1.141333E+0	1.053225E+0	1.078726E+0	1.126384E+0	1.073635E+0	1.121811E+0	1.132351E+0	1.094739E+0	1.082314E+0	1.112413E+0	1.155023E+0	1.136378E+0	1.086326E+0	1.105436E+0	1.106844E+0	1.096120E+0	1.090326E+0	1.107599E+0	1.103049E+0	1.158431E+0	1.033282E+0	1.117381E+0	1.111447E+0	1.055915E+0	1.066578E+0	1.092405E+0	1.102789E+0	1.115345E+0	1.138906E+0	1.182297E+0	1.130187E+0	1.125319E+0	1.130211E+0	1.099807E+0	1.108417E+0	1.164517E+0	1.056863E+0	1.124090E+0	1.068999E+0	1.101534E+0	1.161589E+0	1.132723E+0	1.098757E+0	1.100924E+0	1.055919E+0	1.158223E+0	1.060883E+0	1.141818E+0	1.047751E+0	1.135192E+0	1.119729E+0	1.110325E+0	1.110456E+0	1.143773E+0	1.124673E+0	1.089968E+0	1.034592E+0	1.091845E+0	1.114278E+0	1.145810E+0	1.116428E+0	1.055720E+0	1.075238E+0	1.149018E+0	1.069306E+0	1.163165E+0	1.092369E+0	1.059658E+0	1.056721E+0	1.108378E+0	1.083390E+0	1.117364E+0	1.160528E+0	1.043938E+0	1.094873E+0	1.088377E+0	1.116887E+0	1.133136E+0	1.106724E+0	1.060372E+0	1.145540E+0	1.108911E+0	1.098893E+0	1.104141E+0	1.069397E+0	1.123357E+0	1.071064E+0	1.078947E+0	1.053601E+0	1.050179E+0	1.105997E+0	1.095882E+0	1.082899E+0	1.117847E+0	1.075096E+0	1.144406E+0	1.118055E+0	1.130106E+0	1.132652E+0	1.054232E+0	1.126358E+0	1.158775E+0	1.113593E+0	1.060115E+0	1.103916E+0	1.103832E+0	1.077080E+0	1.132569E+0	1.111068E+0	1.069625E+0	1.056649E+0	1.092212E+0	1.080750E+0	1.150593E+0	1.084574E+0	1.162168E+0	1.100869E+0	1.064217E+0	1.076716E+0	1.090486E+0	1.115718E+0	1.131744E+0	1.082332E+0	1.133940E+0	1.085110E+0	1.062885E+0	1.123917E+0	1.131062E+0	1.169673E+0	1.159291E+0	1.094931E+0	1.136598E+0	1.139902E+0	1.117371E+0	1.143549E+0	1.097163E+0
2.970040E+2	9.068284E-1	9.412291E-1	9.346598E-1	9.329976E-1	9.171828E-1	9.241845E-1	9.390482E-1	9.397418E-1	9.105615E-1	8.920577E-1	9.373657E-1	9.174730E-1	9.290913E-1	9.460399E-1	9.184098E-1	9.294991E-1	9.330265E-1	8.781904E-1	9.559062E-1	9.173491E-1	9.321020E-1	9.402715E-1	9.468965E-1	9.585005E-1	9.423772E-1	9.173407E-1	8.871520E-1	8.867666E-1	9.178477E-1	8.850418E-1	9.467194E-1	9.104387E-1	9.533528E-1	8.895791E-1	9.335413E-1	9.062800E-1	9.217864E-1	9.450029E-1	8.570688E-1	9.425517E-1	9.186875E-1	1.002088E+0	8.843838E-1	9.702722E-1	9.302330E-1	8.753122E-1	9.084827E-1	9.518032E-1	9.700249E-1	9.662196E-1	9.467248E-1	9.222463E-1	9.260051E-1	9.297359E-1	9.302510E-1	9.463811E-1	9.070891E-1	9.579797E-1	9.571939E-1	8.963834E-1	9.172668E-1	9.015223E-1	9.733179E-1	9.054678E-1	9.443616E-1	8.976075E-1	9.040798E-1	8.801607E-1	8.901069E-1	9.396037E-1	9.254528E-1	9.393903E-1	9.193430E-1	8.866417E-1	9.124338E-1	9.595639E-1	8.929635E-1	9.440020E-1	8.977191E-1	9.545536E-1	8.959537E-1	9.635340E-1	9.420631E-1	8.696347E-1	9.346941E-1	9.247810E-1	9.238131E-1	9.680505E-1	8.729965E-1	9.112330E-1	9.178232E-1	9.244209E-1	8.919613E-1	9.225156E-1	9.214064E-1	8.972554E-1	1.027436E+0	9.613247E-1	9.186606E-1	9.263883E-1	9.313688E-1	9.328398E-1	9.631625E-1	9.422652E-1	9.163795E-1	8.892443E-1	9.230351E-1	9.398990E-1	9.759065E-1	9.217331E-1	9.047482E-1	9.380558E-1	9.379665E-1	9.636237E-1	9.447519E-1	9.365268E-1	9.180134E-1	9.429241E-1	8.961020E-1	9.296214E-1	9.223404E-1	8.884071E-1	9.467465E-1	9.052126E-1	8.780102E-1	9.532053E-1	8.903421E-1	9.739437E-1	9.358295E-1	9.277351E-1	9.093248E-1	9.655644E-1	9.147289E-1	8.851564E-1	9.438514E-1	9.509664E-1	9.310476E-1	8.834388E-1	9.216051E-1	9.481236E-1	9.670962E-1	8.739102E-1	9.652349E-1	9.233428E-1	9.301500E-1	9.414512E-1	8.545269E-1	8.896377E-1	8.955507E-1	9.627293E-1	8.826886E-1	9.615052E-1	9.274908E-1	9.340313E-1	9.779638E-1	9.866983E-1	9.094717E-1	9.320651E-1	9.306635E-1	9.153575E-1	8.945137E-1	9.734253E-1	8.985450E-1	9.054646E-1	8.816842E-1	9.604417E-1	8.470202E-1	9.312203E-1	9.021034E-1	9.304248E-1	1.039748E+0
2.975040E+2	7.884023E-1	7.854538E-1	8.050616E-1	8.564686E-1	8.176264E-1	7.959810E-1	8.170435E-1	7.939940E-1	7.764894E-1	7.792617E-1	7.767086E-1	7.866859E-1	8.345702E-1	8.074087E-1	7.953240E-1	7.953930E-1	7.814403E-1	8.013820E-1	8.250680E-1	8.785427E-1	8.122882E-1	7.965241E-1	8.180019E-1	7.813998E-1	7.668854E-1	8.188059E-1	7.899891E-1	7.903045E-1	7.843083E-1	7.737415E-1	7.540230E-1	7.631109E-1	8.007111E-1	7.919289E-1	8.334119E-1	8.148265E-1	8.068750E-1	7.989035E-1	7.991776E-1	7.936282E-1	7.982267E-1	8.093402E-1	8.303189E-1	7.480139E-1	7.870687E-1	7.836259E-1	7.986241E-1	7.706561E-1	8.131519E-1	8.351544E-1	8.155389E-1	7.610737E-1	8.155711E-1	7.964042E-1	8.176386E-1	8.110684E-1	8.209932E-1	8.320692E-1	8.509362E-1	7.950935E-1	7.781937E-1	8.185324E-1	8.407600E-1	8.074661E-1	8.054672E-1	7.891103E-1	8.181006E-1	8.183728E-1	8.384579E-1	8.039706E-1	7.903666E-1	7.810030E-1	7.919902E-1	8.050300E-1	8.050617E-1	8.108512E-1	8.077453E-1	8.045803E-1	8.223081E-1	8.179069E-1	7.717990E-1	8.002226E-1	8.394831E-1	8.421878E-1	7.817653E-1	7.917761E-1	8.101745E-1	7.915814E-1	7.524711E-1	8.076581E-1	8.200875E-1	8.057531E-1	7.581689E-1	8.087223E-1	8.122116E-1	7.727758E-1	8.157207E-1	7.939578E-1	7.796091E-1	7.883648E-1	8.265486E-1	8.483037E-1	8.347413E-1	8.250926E-1	8.003732E-1	8.152527E-1	7.778393E-1	8.293686E-1	8.132897E-1	8.432914E-1	8.179905E-1	8.294900E-1	8.124823E-1	7.877398E-1	8.293620E-1	8.430283E-1	7.597534E-1	7.812375E-1	7.694767E-1	8.064337E-1	7.975464E-1	8.211042E-1	7.941465E-1	7.776427E-1	8.180337E-1	8.356742E-1	7.672816E-1	7.945280E-1	8.239324E-1	7.912386E-1	8.166443E-1	8.219188E-1	7.991279E-1	8.170683E-1	8.415492E-1	8.312227E-1	8.225068E-1	8.169778E-1	8.524017E-1	8.804539E-1	8.025588E-1	8.245021E-1	7.703477E-1	8.053482E-1	8.113573E-1	8.237382E-1	7.889425E-1	7.794331E-1	8.611391E-1	8.311578E-1	7.985455E-1	8.177424E-1	8.079081E-1	7.702700E-1	8.202859E-1	7.974157E-1	7.885025E-1	8.202383E-1	8.347147E-1	8.551099E-1	7.916350E-1	8.273597E-1	8.433311E-1	8.087126E-1	7.839886E-1	7.998038E-1	7.706137E-1	8.398441E-1	8.756625E-1	7.535153E-1	8.650228E-1
2.980020E+2	9.106141E-1	9.349899E-1	9.660379E-1	9.515149E-1	9.069605E-1	9.504996E-1	9.467419E-1	8.992278E-1	8.983404E-1	9.534016E-1	9.450020E-1	9.747940E-1	9.217543E-1	8.918762E-1	9.180387E-1	9.354342E-1	9.545370E-1	9.521374E-1	9.291072E-1	8.913099E-1	9.162100E-1	9.341281E-1	9.581451E-1	9.392473E-1	9.617621E-1	9.776879E-1	9.607397E-1	9.896507E-1	9.477399E-1	9.463682E-1	9.448400E-1	9.359566E-1	9.417573E-1	9.474777E-1	9.603936E-1	9.481308E-1	9.442125E-1	9.498223E-1	9.421112E-1	9.110692E-1	9.613296E-1	9.562357E-1	9.547962E-1	9.632764E-1	9.768800E-1	8.665484E-1	9.278047E-1	9.428757E-1	9.011155E-1	9.280326E-1	9.459758E-1	9.856154E-1	9.100575E-1	9.525371E-1	9.790243E-1	9.462374E-1	9.279878E-1	9.414201E-1	9.024062E-1	9.775905E-1	9.467291E-1	9.398064E-1	8.995247E-1	9.838701E-1	9.389668E-1	9.308752E-1	8.914936E-1	9.062199E-1	9.534314E-1	9.188851E-1	9.143746E-1	9.405882E-1	1.012375E+0	9.673753E-1	9.083746E-1	9.248198E-1	9.609378E-1	9.009730E-1	9.545170E-1	9.503186E-1	9.600492E-1	8.952907E-1	9.749555E-1	9.029257E-1	9.926839E-1	9.854605E-1	9.577784E-1	9.338883E-1	9.368043E-1	9.144811E-1	9.116200E-1	9.077744E-1	1.006565E+0	9.277140E-1	9.302487E-1	9.736831E-1	9.440541E-1	9.309167E-1	9.792066E-1	9.463541E-1	8.974680E-1	9.636354E-1	9.427146E-1	9.385490E-1	9.150767E-1	9.268319E-1	9.737087E-1	9.767199E-1	9.405947E-1	9.200906E-1	9.638903E-1	9.147024E-1	9.906070E-1	9.669085E-1	9.262136E-1	9.083242E-1	9.558159E-1	9.330073E-1	9.248405E-1	9.766270E-1	9.097571E-1	9.444896E-1	9.448179E-1	9.392507E-1	9.221868E-1	9.126058E-1	9.212184E-1	9.354294E-1	1.001034E+0	9.131791E-1	9.366528E-1	9.547212E-1	9.250319E-1	9.612813E-1	9.382992E-1	9.433301E-1	9.236556E-1	9.021411E-1	9.285717E-1	9.356150E-1	9.489021E-1	9.556560E-1	9.395381E-1	9.308192E-1	9.639704E-1	9.579274E-1	9.349304E-1	9.534880E-1	9.371442E-1	9.405262E-1	9.254449E-1	9.464325E-1	9.420927E-1	9.512286E-1	9.346886E-1	9.481002E-1	9.083702E-1	9.504294E-1	9.776429E-1	9.288672E-1	9.331410E-1	9.600830E-1	9.974798E-1	9.341440E-1	9.629028E-1	9.630935E-1	9.438012E-1	9.213270E-1	9.033500E-1	9.835198E-1	8.742208E-1
2.985020E+2	1.035007E+0	1.137401E+0	1.125538E+0	1.118693E+0	1.094467E+0	1.072317E+0	1.064900E+0	1.102466E+0	1.104956E+0	1.050647E+0	1.131264E+0	1.058997E+0	1.097687E+0	1.142350E+0	1.079434E+0	1.100981E+0	1.056463E+0	1.049465E+0	1.096688E+0	1.094927E+0	1.130306E+0	1.086968E+0	1.098945E+0	1.146579E+0	1.102354E+0	1.093703E+0	1.113171E+0	1.069281E+0	1.105592E+0	1.095277E+0	1.087965E+0	1.096070E+0	1.027768E+0	1.083928E+0	1.064831E+0	1.102258E+0	1.079953E+0	1.077483E+0	1.062283E+0	1.056678E+0	1.031126E+0	1.047863E+0	1.089710E+0	1.077034E+0	1.033690E+0	1.120077E+0	1.088630E+0	1.101892E+0	1.104170E+0	1.074228E+0	1.097162E+0	1.120719E+0	1.142378E+0	1.094625E+0	1.077336E+0	1.087310E+0	1.079360E+0	1.061267E+0	1.067546E+0	1.086026E+0	1.078407E+0	1.073085E+0	1.086363E+0	1.007798E+0	1.075089E+0	1.062436E+0	1.130397E+0	1.105439E+0	1.068347E+0	1.095618E+0	1.116032E+0	1.090668E+0	1.055711E+0	1.080908E+0	1.083847E+0	1.126324E+0	1.059479E+0	1.052651E+0	1.072737E+0	1.138441E+0	1.105988E+0	1.092772E+0	1.043072E+0	1.091970E+0	1.059066E+0	1.091451E+0	1.107091E+0	1.152779E+0	1.114775E+0	1.107314E+0	1.063207E+0	1.079728E+0	1.097373E+0	1.120415E+0	1.089017E+0	1.111826E+0	1.100343E+0	1.109054E+0	1.069505E+0	1.067972E+0	1.062781E+0	1.102555E+0	1.072514E+0	1.094446E+0	1.052050E+0	1.072935E+0	1.050147E+0	1.047379E+0	1.049463E+0	1.021085E+0	1.083345E+0	1.054868E+0	1.067418E+0	1.055615E+0	1.098707E+0	1.080220E+0	1.052286E+0	1.081248E+0	1.099898E+0	1.084138E+0	1.058612E+0	1.062804E+0	1.066226E+0	1.093946E+0	1.089632E+0	1.114547E+0	1.111178E+0	1.066784E+0	1.028367E+0	1.118939E+0	1.129077E+0	1.046016E+0	1.101830E+0	1.052109E+0	1.068929E+0	1.096169E+0	1.073243E+0	1.044644E+0	1.065680E+0	1.063536E+0	1.069824E+0	1.098945E+0	1.111487E+0	1.081468E+0	1.076645E+0	1.068928E+0	1.105910E+0	1.104411E+0	1.076441E+0	1.095371E+0	1.062234E+0	1.052807E+0	1.116096E+0	1.124873E+0	1.110645E+0	1.092985E+0	1.044700E+0	1.079320E+0	1.038906E+0	1.065726E+0	1.080478E+0	1.080251E+0	1.029773E+0	1.070531E+0	1.075798E+0	1.100644E+0	1.107355E+0	1.121546E+0	1.105448E+0	1.141130E+0	1.066001E+0
2.990040E+2	1.148002E+0	1.133272E+0	1.117686E+0	1.138725E+0	1.105451E+0	1.127600E+0	1.138460E+0	1.144064E+0	1.123119E+0	1.164215E+0	1.102525E+0	1.138819E+0	1.143156E+0	1.148625E+0	1.153855E+0	1.156725E+0	1.225582E+0	1.132087E+0	1.121793E+0	1.128253E+0	1.146732E+0	1.157066E+0	1.130883E+0	1.136247E+0	1.165571E+0	1.125078E+0	1.108356E+0	1.116984E+0	1.136019E+0	1.151731E+0	1.174363E+0	1.173206E+0	1.140762E+0	1.154026E+0	1.163913E+0	1.098631E+0	1.138081E+0	1.118785E+0	1.161090E+0	1.142569E+0	1.132823E+0	1.152959E+0	1.086996E+0	1.186954E+0	1.123088E+0	1.187368E+0	1.164408E+0	1.174306E+0	1.146030E+0	1.145543E+0	1.112971E+0	1.165426E+0	1.131950E+0	1.144286E+0	1.071978E+0	1.129570E+0	1.146500E+0	1.116891E+0	1.162930E+0	1.134541E+0	1.143603E+0	1.148478E+0	1.162429E+0	1.117204E+0	1.130417E+0	1.196541E+0	1.149190E+0	1.185508E+0	1.156317E+0	1.123544E+0	1.146735E+0	1.128864E+0	1.116005E+0	1.099549E+0	1.195102E+0	1.156128E+0	1.151940E+0	1.181403E+0	1.142864E+0	1.123540E+0	1.131861E+0	1.161203E+0	1.118194E+0	1.158567E+0	1.139053E+0	1.136168E+0	1.129388E+0	1.107558E+0	1.149568E+0	1.139612E+0	1.148567E+0	1.127421E+0	1.133393E+0	1.149349E+0	1.144722E+0	1.095777E+0	1.163969E+0	1.150827E+0	1.146248E+0	1.162261E+0	1.137364E+0	1.077540E+0	1.137887E+0	1.141949E+0	1.145459E+0	1.172822E+0	1.152701E+0	1.117636E+0	1.171464E+0	1.139106E+0	1.085435E+0	1.115092E+0	1.089983E+0	1.125709E+0	1.141929E+0	1.128618E+0	1.216984E+0	1.140107E+0	1.130436E+0	1.167430E+0	1.157608E+0	1.140882E+0	1.160977E+0	1.127378E+0	1.114619E+0	1.158125E+0	1.149931E+0	1.128137E+0	1.116475E+0	1.117808E+0	1.124883E+0	1.142515E+0	1.103408E+0	1.130206E+0	1.154550E+0	1.130500E+0	1.175443E+0	1.130144E+0	1.164940E+0	1.139890E+0	1.181417E+0	1.139106E+0	1.157003E+0	1.122370E+0	1.131002E+0	1.132056E+0	1.132965E+0	1.130099E+0	1.091759E+0	1.128169E+0	1.117430E+0	1.137450E+0	1.130160E+0	1.140763E+0	1.144555E+0	1.094627E+0	1.200320E+0	1.120721E+0	1.124230E+0	1.127842E+0	1.115997E+0	1.137747E+0	1.121545E+0	1.175530E+0	1.131934E+0	1.163161E+0	1.181539E+0	1.145821E+0	1.129996E+0	1.064425E+0	1.110773E+0
2.995060E+2	1.061907E+0	9.904800E-1	9.887975E-1	1.011768E+0	1.026428E+0	1.050794E+0	1.044206E+0	9.963314E-1	1.071987E+0	1.020370E+0	1.073022E+0	1.034057E+0	1.009393E+0	9.970733E-1	1.039782E+0	9.971350E-1	9.898208E-1	1.042111E+0	1.029434E+0	9.981146E-1	1.018256E+0	1.064222E+0	1.008207E+0	9.809820E-1	1.013415E+0	1.014821E+0	1.059168E+0	1.026383E+0	1.008004E+0	1.054537E+0	1.037179E+0	1.017723E+0	1.063089E+0	1.042293E+0	9.561732E-1	1.016547E+0	1.029258E+0	1.045382E+0	1.031346E+0	1.044224E+0	1.014999E+0	1.038387E+0	1.044028E+0	1.053039E+0	1.041724E+0	1.045833E+0	9.995492E-1	1.032965E+0	1.066402E+0	1.053652E+0	1.033132E+0	9.801084E-1	1.038507E+0	1.044484E+0	1.024133E+0	1.007423E+0	9.960153E-1	1.028020E+0	1.013597E+0	1.024806E+0	1.048498E+0	1.008881E+0	1.008635E+0	1.063843E+0	1.063305E+0	1.039691E+0	9.787497E-1	1.014886E+0	1.006878E+0	1.063988E+0	1.027522E+0	1.034582E+0	1.027935E+0	1.028867E+0	1.018237E+0	1.027489E+0	1.022158E+0	1.080120E+0	1.006364E+0	9.686957E-1	1.007845E+0	1.034973E+0	1.012819E+0	1.007794E+0	1.006605E+0	1.004427E+0	1.020533E+0	1.001142E+0	1.031325E+0	1.029877E+0	1.050488E+0	1.064470E+0	1.023503E+0	9.802777E-1	1.036427E+0	1.057021E+0	9.985167E-1	1.014201E+0	1.018368E+0	1.034950E+0	1.042872E+0	1.038657E+0	1.009019E+0	1.018933E+0	1.040185E+0	1.012311E+0	1.029489E+0	1.021596E+0	1.003985E+0	1.052490E+0	1.080215E+0	1.050556E+0	1.019319E+0	1.053894E+0	1.007776E+0	1.042988E+0	1.001298E+0	1.035376E+0	1.061172E+0	9.814160E-1	9.986169E-1	1.055908E+0	1.035167E+0	1.037109E+0	1.030385E+0	1.003831E+0	1.012571E+0	1.044286E+0	1.011237E+0	1.038654E+0	1.001439E+0	1.025919E+0	1.032406E+0	1.064091E+0	9.952967E-1	1.018172E+0	9.927859E-1	1.072139E+0	9.971561E-1	9.960225E-1	1.002522E+0	9.879029E-1	1.026979E+0	1.037780E+0	1.009974E+0	1.004019E+0	1.026227E+0	1.021066E+0	1.038701E+0	9.987849E-1	1.036308E+0	1.038830E+0	1.026473E+0	1.037154E+0	1.016669E+0	1.054209E+0	1.032157E+0	1.041056E+0	1.016208E+0	9.924728E-1	1.087872E+0	9.947022E-1	1.000459E+0	9.940491E-1	1.057911E+0	1.003363E+0	1.010667E+0	1.010756E+0	9.970322E-1	1.029654E+0	1.050843E+0
3.000060E+2	1.056068E+0	1.018403E+0	9.968790E-1	9.228302E-1	1.049067E+0	1.002808E+0	9.886482E-1	1.063917E+0	1.025109E+0	1.032104E+0	9.714783E-1	1.006647E+0	9.934393E-1	1.012667E+0	1.013566E+0	1.014332E+0	9.921573E-1	1.022818E+0	9.979090E-1	1.008852E+0	9.762087E-1	9.610910E-1	9.858177E-1	1.015545E+0	9.900128E-1	9.699041E-1	9.685757E-1	1.007397E+0	1.018338E+0	9.783456E-1	1.001631E+0	1.013933E+0	1.025912E+0	9.803472E-1	1.021277E+0	1.019606E+0	1.001620E+0	1.009624E+0	1.003992E+0	1.051832E+0	1.061497E+0	9.952153E-1	9.941508E-1	9.716823E-1	1.037548E+0	9.965478E-1	1.020985E+0	9.773047E-1	9.691311E-1	9.633893E-1	9.952207E-1	9.870572E-1	9.615369E-1	9.676638E-1	1.029890E+0	1.018392E+0	1.029143E+0	1.020332E+0	1.002585E+0	9.819432E-1	1.004570E+0	1.011217E+0	1.002288E+0	1.019818E+0	9.867547E-1	9.813462E-1	1.032069E+0	9.695740E-1	9.765692E-1	9.939943E-1	1.004969E+0	1.024295E+0	9.959852E-1	1.018271E+0	9.893766E-1	9.543883E-1	9.977406E-1	9.802725E-1	1.001209E+0	1.001098E+0	1.022458E+0	1.015538E+0	1.011477E+0	9.965561E-1	1.020828E+0	9.907174E-1	9.750351E-1	1.013051E+0	1.015056E+0	1.001058E+0	1.006031E+0	1.014854E+0	9.809968E-1	1.013523E+0	9.873739E-1	9.889161E-1	9.773960E-1	1.001044E+0	1.007064E+0	1.000097E+0	1.032967E+0	9.693084E-1	1.003125E+0	9.810311E-1	1.046856E+0	9.998468E-1	1.016115E+0	1.007301E+0	1.021204E+0	1.023938E+0	9.691253E-1	1.035291E+0	1.020190E+0	1.010134E+0	9.960131E-1	9.968212E-1	1.013864E+0	1.029023E+0	1.014176E+0	9.839545E-1	1.077859E+0	9.748122E-1	9.986649E-1	1.024675E+0	1.025145E+0	9.752172E-1	1.037820E+0	1.030835E+0	1.018955E+0	1.020182E+0	9.913037E-1	1.008910E+0	1.038196E+0	9.752441E-1	1.001376E+0	9.806066E-1	1.012367E+0	1.033954E+0	9.912501E-1	9.844828E-1	9.947763E-1	9.938879E-1	9.946447E-1	1.022215E+0	1.007051E+0	1.013330E+0	1.011025E+0	1.011503E+0	9.948157E-1	1.005992E+0	1.060038E+0	1.006738E+0	9.772700E-1	9.757122E-1	9.731570E-1	1.012663E+0	1.025951E+0	9.882348E-1	1.008298E+0	1.029982E+0	9.908768E-1	9.998575E-1	1.007413E+0	1.017033E+0	9.874649E-1	9.699352E-1	9.860250E-1	9.607057E-1	9.885113E-1	1.027755E+0	1.033139E+0
