Photon Energy (eV)	#1	#2	#3	#4	#5	#6	#7	#8	#9	#10	#11	#12	#13	#14	#15	#16	#17	#18	#19	#20	#21	#22	#23	#24	#25	#26	#27	#28	#29	#30	#31	#32	#33	#34	#35	#36	#37	#38	#39	#40	#41	#42	#43	#44	#45	#46	#47	#48	#49	#50	#51	#52	#53	#54	#55	#56	#57	#58	#59	#60	#61	#62	#63	#64	#65	#66	#67	#68	#69	#70	#71	#72	#73	#74	#75	#76	#77	#78	#79	#80	#81	#82	#83	#84	#85	#86	#87	#88	#89	#90	#91	#92	#93	#94	#95	#96	#97	#98	#99	#100	#101	#102	#103	#104	#105	#106	#107	#108	#109	#110	#111	#112	#113	#114	#115	#116	#117	#118	#119	#120	#121	#122	#123	#124	#125	#126	#127	#128	#129	#130	#131	#132	#133	#134	#135	#136	#137	#138	#139	#140	#141	#142	#143	#144	#145	#146	#147	#148	#149	#150	#151	#152	#153	#154	#155	#156	#157	#158	#159	#160	#161	#162	#163	#164	#165	#166	#167	#168	#169	#170	#171	
2.790030E+2	1.181088E-3	-1.823647E-2	-4.576767E-3	-4.341833E-3	3.917490E-3	7.218648E-5	-1.072785E-2	-7.435566E-3	-8.220446E-3	-1.808253E-3	-5.169854E-3	-5.891781E-4	-4.943426E-3	6.731662E-4	-7.544228E-3	-2.033751E-3	-1.449814E-3	2.306418E-4	-8.251086E-3	-1.473512E-4	-6.523386E-3	-1.491302E-2	-9.736821E-3	-5.325664E-3	6.176908E-3	-1.070219E-2	-6.365585E-3	-9.268741E-3	2.057744E-3	-6.844247E-4	-8.368230E-3	-4.097014E-3	-4.444288E-3	-5.413517E-4	-5.211319E-3	-4.295047E-3	-1.256328E-2	3.039784E-4	-5.531718E-3	-1.083793E-2	-6.690034E-3	-8.969441E-3	5.052230E-3	-5.929547E-3	-8.740443E-3	-3.631847E-3	-3.887619E-3	-6.586864E-3	-7.839628E-3	-1.605468E-3	-5.172913E-3	-6.929114E-4	-2.516242E-3	-5.323854E-4	-4.483094E-3	3.019402E-4	-1.051466E-2	-4.724875E-3	-1.455285E-2	-4.796318E-3	-1.260633E-3	-7.094770E-3	-1.721183E-3	-1.193213E-3	5.342920E-3	-3.224530E-3	-1.645651E-2	-1.148329E-2	3.690401E-3	-4.903905E-4	2.230750E-3	1.432942E-3	3.483340E-4	9.055747E-3	2.953036E-3	5.348871E-3	1.568451E-3	-1.593510E-3	-3.719705E-3	5.958021E-5	-7.789564E-3	4.600155E-3	-5.352227E-3	-2.301442E-3	-1.338892E-2	-3.910153E-3	1.889223E-3	-1.431706E-2	-2.334907E-3	-9.212103E-3	-6.600179E-3	-1.685810E-3	-5.551603E-3	-2.352677E-4	2.482142E-3	-2.592557E-3	-1.523571E-2	-1.106836E-2	-2.124114E-3	-5.853460E-3	-5.738817E-5	4.559440E-3	-1.042878E-4	-3.675074E-3	-1.476075E-3	-1.216429E-2	1.967891E-3	-4.596358E-3	-4.060992E-4	-9.154869E-3	-1.484368E-3	-1.053768E-3	7.274276E-4	-3.770110E-3	-4.004763E-3	-4.023267E-4	-1.500440E-2	-4.774331E-3	-5.797462E-3	-1.057484E-2	-5.812201E-3	-5.705294E-4	2.820977E-3	-5.183461E-3	-1.059304E-2	-8.180509E-3	-9.410683E-3	-7.026799E-3	9.276540E-4	-7.934219E-3	-5.238915E-3	-2.548706E-3	2.922493E-3	-5.832214E-3	2.199406E-3	-3.860244E-3	-5.661262E-3	4.622029E-3	-6.736597E-3	5.397463E-4	-2.007424E-3	-1.258005E-3	2.735413E-3	-2.094327E-3	-2.490105E-3	5.383419E-3	-1.304042E-2	-4.430948E-4	-7.744924E-3	-5.035641E-3	-3.766809E-3	-1.509327E-3	-9.531562E-3	-4.139904E-3	-3.086985E-3	7.043811E-3	-3.371684E-4	6.938825E-3	-8.718713E-3	4.853783E-3	-3.315919E-4	-5.055401E-3	1.102713E-3	-5.788101E-3	9.455293E-3	-1.323794E-2	2.249427E-3	1.793912E-3	-1.497273E-2	-5.315247E-3	-1.481600E-2
2.795050E+2	4.947965E-3	5.444738E-3	-3.921220E-3	5.014324E-3	-3.384990E-3	-1.926474E-3	1.080448E-2	7.486174E-3	1.952437E-3	-3.938977E-4	5.398350E-3	3.721927E-3	-1.042992E-2	4.749775E-3	-1.343972E-2	-5.797741E-3	-1.266246E-2	-7.411624E-3	3.363650E-3	-5.094852E-3	-8.262502E-3	-2.755108E-3	1.697593E-3	-4.122411E-4	2.443701E-3	-2.773127E-3	3.227852E-3	-1.192633E-2	-5.169779E-3	-7.394741E-3	8.010120E-3	-2.316930E-3	1.327075E-3	-3.011428E-3	2.374273E-3	-8.593521E-4	-6.163048E-4	-1.317092E-3	-9.483844E-3	2.738199E-3	6.758980E-4	-5.997209E-3	-1.438772E-3	-5.282309E-3	-7.425352E-3	-4.480346E-3	-1.281261E-3	3.231298E-3	2.320352E-3	-1.595043E-4	-1.422636E-3	-9.064889E-4	4.573178E-3	-3.787872E-3	-3.125706E-3	9.036388E-4	-2.331990E-3	4.182717E-3	9.499229E-3	-6.683494E-3	-6.564834E-4	-5.113475E-3	-8.890829E-3	5.458746E-3	-4.458234E-3	-6.418876E-3	6.696260E-3	-2.340431E-4	-2.991073E-3	6.417098E-3	2.786704E-3	-6.479752E-3	1.623172E-4	-5.222931E-3	2.742118E-3	-9.724698E-3	-1.029065E-2	-2.517810E-3	3.238469E-3	-2.638973E-3	5.015090E-3	6.063287E-3	-7.753666E-3	-8.562405E-4	-6.689551E-4	-8.054485E-3	-7.722291E-3	9.781289E-5	-4.408931E-3	1.609919E-2	-2.657420E-4	4.014227E-3	1.430891E-3	2.526200E-3	-4.751867E-3	-2.729136E-4	-1.075724E-2	4.580334E-3	-4.705159E-4	-6.630564E-3	-3.086436E-3	-2.407526E-4	-6.799110E-3	-4.363114E-4	6.170036E-3	-3.302163E-3	6.704414E-3	-5.070619E-3	1.231541E-2	-3.403566E-3	-1.394261E-2	-5.787060E-3	-6.884899E-3	-6.155373E-4	2.972939E-4	1.049395E-2	-2.401146E-3	-1.951492E-4	2.212126E-3	-1.251971E-3	-2.995102E-3	-4.960739E-3	-2.767791E-3	7.097440E-5	8.690953E-3	-1.878904E-3	1.027506E-3	6.437810E-3	-4.980203E-3	3.583274E-4	-3.413619E-3	1.151567E-2	-6.547641E-4	-6.798950E-3	3.623626E-3	-4.804107E-3	-8.618280E-3	2.455267E-3	-5.156827E-3	2.149544E-3	-3.669931E-3	9.542971E-4	3.324179E-3	-5.707484E-3	-4.287470E-3	1.155495E-2	-4.618944E-3	4.993664E-3	1.049417E-3	-9.240189E-5	1.011946E-3	3.703516E-3	2.156035E-3	-8.388278E-4	3.374125E-3	-2.552820E-3	6.283124E-3	-5.478871E-3	-8.327825E-4	1.049778E-2	1.361391E-3	3.482286E-3	-2.265170E-3	-6.902869E-3	3.168476E-3	-3.846435E-3	-3.318083E-3	-7.780863E-3	-4.002297E-3	-6.099922E-4	1.744919E-2
2.800020E+2	-1.436189E-4	-6.529689E-3	-5.471397E-4	-7.499621E-3	7.148267E-3	-8.198586E-3	6.714995E-3	1.159768E-2	2.826088E-3	5.310444E-3	3.808158E-3	-4.437182E-3	-1.348072E-3	-3.126567E-3	8.173908E-3	6.055532E-4	6.762679E-3	1.624808E-3	1.102339E-3	4.579520E-4	6.678917E-3	1.789813E-3	-6.718647E-4	-4.612948E-4	-6.357842E-3	3.620551E-3	-1.322113E-3	3.860568E-3	3.222890E-3	-9.351086E-4	-6.580396E-4	-6.862840E-3	3.805287E-3	-5.347192E-3	-6.992336E-3	1.962893E-3	8.324268E-4	7.239537E-3	1.018692E-3	-1.640012E-3	-3.563189E-3	4.073530E-3	1.025599E-2	6.154199E-3	3.437773E-3	-5.213311E-3	-4.084689E-3	-1.085145E-3	-6.340429E-3	-6.734415E-3	7.914779E-3	1.615534E-3	-1.943869E-3	3.779930E-3	-3.943313E-3	1.621053E-3	2.595502E-3	-4.119431E-3	-8.235122E-3	-4.179667E-3	1.669029E-3	5.097771E-4	1.151996E-3	1.330331E-3	2.442344E-4	-2.663664E-3	-4.120857E-3	-2.561696E-3	-6.150998E-4	6.850182E-4	-3.028579E-4	-1.037216E-2	-4.061551E-3	3.795540E-3	5.873510E-3	-4.966854E-3	2.915232E-3	-4.838488E-3	3.187988E-3	-7.989485E-3	8.362864E-3	-1.449089E-3	6.485817E-3	7.869981E-3	6.072891E-3	-1.700244E-3	-1.486740E-3	7.790436E-4	6.225373E-3	7.504142E-4	-3.123786E-3	1.295801E-3	-4.912828E-3	-9.309253E-3	6.951509E-3	-3.678747E-3	3.809615E-3	-4.908027E-3	-1.404621E-3	1.084848E-3	8.315219E-4	-6.458472E-3	-6.034335E-3	-4.837329E-4	-3.420622E-3	7.204355E-4	8.271072E-3	4.124095E-3	-7.283046E-3	9.882255E-4	-2.247333E-4	2.000100E-3	-1.735139E-3	9.446950E-4	-3.249768E-3	-1.117239E-2	3.379704E-4	-1.044437E-3	-2.702611E-3	1.320035E-4	2.016461E-3	-3.311833E-3	-5.483217E-3	-9.482544E-3	-5.784887E-4	-4.061305E-3	-6.443737E-4	-1.366123E-2	-3.893170E-3	2.819296E-3	-4.431723E-3	3.972024E-3	1.980970E-3	-1.959648E-3	6.025839E-3	8.842135E-4	8.048859E-3	-3.388552E-3	9.742638E-4	-1.165551E-2	-8.979319E-3	1.727394E-3	-4.257542E-3	-1.500195E-3	-1.058373E-3	5.995359E-3	1.163234E-2	-7.196550E-4	-5.538523E-3	-1.008087E-3	1.005330E-2	-2.422232E-4	-7.954794E-3	1.719858E-3	2.358114E-3	-2.614409E-3	-9.174295E-3	2.370459E-3	-8.755050E-4	-3.021898E-3	-5.568221E-3	-5.310241E-3	-3.888599E-3	1.117211E-2	-1.586173E-2	1.655473E-3	-1.049778E-2	-7.823720E-3	1.178402E-2	-1.054758E-2	1.733525E-2
2.805030E+2	2.897748E-3	3.411396E-3	2.945279E-3	6.872231E-3	-6.952550E-3	-3.720635E-3	5.959329E-3	-9.080175E-4	1.036916E-3	-6.050784E-3	5.392882E-3	-7.989608E-3	4.024500E-3	-2.293335E-4	-3.836172E-5	4.248195E-3	-1.661451E-3	3.330779E-3	-3.256432E-3	-3.443884E-3	-5.902705E-3	-4.291896E-3	5.551046E-3	1.043191E-3	3.294734E-3	-1.975630E-3	2.281508E-4	1.409930E-3	-2.350131E-3	-3.050049E-3	2.987985E-3	1.571237E-3	-8.892298E-3	8.429043E-3	3.761527E-5	5.610020E-3	8.846490E-4	1.209509E-4	-4.205092E-3	-1.589352E-3	7.345441E-3	1.788231E-3	9.110523E-4	7.031500E-3	-8.710900E-4	-3.088225E-3	-3.344340E-3	1.816809E-3	-1.998604E-3	3.906705E-3	-1.424357E-3	-6.108018E-3	-1.092748E-3	6.889730E-3	1.066228E-2	8.615267E-3	-3.180909E-3	1.691939E-3	2.027068E-3	-5.844066E-3	1.720949E-3	1.049245E-2	-2.679871E-3	-2.015225E-3	-3.533427E-3	-3.380547E-3	7.563858E-3	3.568401E-3	9.958290E-3	-1.061587E-2	-3.287133E-3	3.508868E-3	-3.190515E-3	5.444898E-4	1.132338E-3	-1.142219E-4	1.409283E-3	2.787805E-3	-7.422273E-3	2.702867E-3	-1.849251E-3	2.495920E-4	3.536901E-3	-8.854407E-3	-8.346394E-3	-6.002877E-5	7.993787E-3	-8.042546E-3	5.294688E-3	-5.143723E-3	8.987262E-3	-8.365085E-3	-2.509959E-3	-4.839208E-3	1.516677E-3	-2.512916E-4	-4.480557E-4	5.355912E-3	3.858162E-3	1.913539E-3	-7.097527E-4	3.607603E-3	3.021759E-3	-4.323493E-4	-8.164892E-3	-8.661017E-4	1.470348E-4	-4.045139E-3	-4.195672E-3	3.258177E-3	7.077954E-3	-6.921476E-3	1.641712E-3	3.429580E-3	4.730230E-3	7.473990E-3	-8.151687E-3	1.333926E-3	4.705768E-3	9.135663E-3	-2.876521E-3	-3.276593E-3	-9.685767E-4	1.347428E-3	3.966591E-4	1.023516E-3	6.771691E-3	7.174408E-3	-9.414816E-3	-4.904552E-4	4.781188E-3	-3.476930E-3	-2.143390E-3	2.994846E-3	-3.559979E-3	5.750214E-3	-7.569792E-3	-2.366319E-3	8.118762E-3	6.024966E-3	1.672472E-3	-6.186718E-3	1.167314E-2	-8.184188E-3	-8.163176E-3	-1.678143E-2	-6.282956E-3	-6.877474E-3	7.696895E-3	1.524564E-2	3.510309E-3	-3.075461E-3	-5.096591E-3	-6.083458E-3	-1.087669E-2	1.009253E-2	-5.601579E-4	-1.149043E-3	2.113104E-3	8.357615E-4	-2.565173E-3	-7.634928E-3	8.728671E-4	-5.124691E-3	8.313114E-3	1.715549E-3	9.151973E-3	3.267903E-3	8.705824E-3	-8.037635E-3	-1.041241E-2
2.810050E+2	-9.375896E-3	4.051599E-3	1.112962E-2	7.876676E-4	3.336702E-3	4.819912E-3	-1.549693E-3	-1.033446E-2	3.527312E-3	-8.724725E-3	-1.763064E-3	-1.913514E-3	1.355693E-2	-1.916915E-3	-4.754374E-3	-6.030796E-3	7.325043E-3	3.040120E-3	3.059477E-3	-2.886610E-3	3.265683E-3	2.374862E-3	6.762091E-3	1.012029E-2	-4.973118E-4	-7.856705E-3	7.007332E-4	4.425475E-3	-1.198115E-3	-4.756763E-3	-3.723561E-3	1.944690E-3	1.522908E-4	5.064212E-3	-5.659144E-3	-1.836713E-3	-3.927533E-3	3.404881E-3	6.752638E-3	2.449151E-3	5.345921E-3	-7.012163E-3	-5.609893E-3	-6.370361E-3	-1.132249E-3	1.144352E-4	-7.016720E-3	8.270162E-4	2.833466E-3	-4.597965E-4	-9.284295E-4	9.052485E-3	-5.766199E-4	-6.346541E-3	-4.160203E-3	-3.970778E-3	8.125871E-3	1.401665E-3	5.398404E-3	9.153733E-3	-6.483692E-3	-8.859236E-3	-1.408360E-3	3.153125E-3	-5.374132E-5	5.435490E-3	3.621440E-3	3.998965E-3	-5.668964E-3	4.460827E-4	-6.569624E-3	8.495241E-3	9.804039E-3	-4.672285E-3	-2.359313E-3	3.843507E-4	-2.000290E-3	5.499290E-3	8.295336E-4	-4.190439E-3	5.507190E-3	3.237769E-3	-5.005546E-3	-7.488985E-3	7.023915E-4	6.830328E-3	-2.498515E-3	-5.373571E-3	3.975582E-3	3.839300E-3	-3.395532E-3	6.261121E-3	-2.790980E-3	4.388472E-3	1.214114E-3	-3.874739E-3	-7.410253E-4	1.123051E-3	-5.108797E-3	7.134910E-5	-4.981027E-3	-2.083924E-3	2.676500E-3	-1.419948E-3	6.767600E-3	1.264181E-3	-1.574355E-4	-5.804729E-3	-9.006289E-3	-2.187667E-3	5.293021E-3	1.222388E-2	-1.969930E-3	4.689775E-3	-6.246659E-3	-3.393911E-3	7.587460E-3	7.210705E-3	-5.787559E-4	1.407612E-3	7.746814E-4	8.981796E-3	-6.625906E-3	7.606877E-3	5.964173E-3	1.128540E-5	-9.753552E-3	-3.097879E-3	2.708754E-3	1.758103E-3	4.421457E-3	-6.285135E-3	6.011026E-3	1.085643E-2	-1.102003E-2	-4.829628E-3	-5.046937E-3	-6.490258E-3	7.398056E-4	9.475029E-3	6.119350E-4	1.381444E-3	-1.499231E-3	1.903346E-2	-1.900930E-3	3.076391E-3	5.440482E-3	5.782145E-3	-6.759915E-4	2.171309E-3	-3.307705E-3	-1.609454E-3	4.679035E-3	4.067804E-3	1.817023E-2	-3.832444E-3	8.186382E-5	-7.813596E-3	-1.765690E-3	-7.471336E-3	-9.427079E-3	1.337617E-5	-3.251597E-3	8.459276E-3	-7.289864E-3	6.496477E-4	-3.566515E-3	-3.399792E-3	-5.723153E-3	8.920247E-3	-1.463103E-3
2.815020E+2	-4.313398E-3	2.127849E-4	1.892008E-3	3.723900E-3	-1.256010E-5	5.781798E-3	-4.660932E-3	-5.259780E-3	-1.769538E-3	3.467121E-3	-3.969982E-3	-4.535789E-3	-8.266399E-3	-3.248728E-3	7.401549E-3	3.337035E-3	1.530078E-3	1.544217E-3	2.435956E-3	4.337394E-3	7.294789E-3	1.726761E-3	-3.881872E-3	-2.756378E-3	-2.148655E-3	7.469670E-3	3.782342E-3	4.525657E-3	2.916819E-4	6.143888E-3	-5.875929E-5	5.907250E-3	2.436082E-4	-9.051807E-4	9.108370E-3	1.116343E-3	8.194912E-3	-7.927996E-3	-2.889934E-3	-6.786569E-3	-3.704630E-3	2.368892E-3	-6.306490E-3	5.163328E-3	8.381245E-3	1.587291E-3	2.695429E-3	-1.198674E-3	3.793460E-3	2.065754E-3	5.406953E-3	-7.164557E-3	-1.173545E-2	-2.461535E-3	-4.834156E-3	-5.432749E-3	-2.532049E-3	-3.432113E-3	8.952816E-4	6.807116E-3	3.098601E-3	8.869123E-3	2.551324E-3	-6.920072E-3	7.644174E-3	5.537547E-3	-7.251674E-4	3.355782E-3	5.689733E-3	-6.516769E-3	6.355179E-3	2.509767E-3	1.614720E-3	2.803444E-3	-9.426930E-3	7.660583E-3	-1.123949E-3	-3.449066E-3	5.893340E-3	9.156291E-3	5.608314E-3	6.632394E-3	7.819491E-3	1.168213E-2	8.013554E-4	1.354656E-3	-8.403140E-4	5.043956E-3	-9.486272E-3	4.793002E-3	3.882779E-4	1.108152E-3	4.351319E-3	1.106856E-4	1.314368E-3	9.256952E-4	8.765295E-3	-2.694299E-3	1.897025E-3	9.449973E-3	-3.304502E-3	3.386680E-3	-2.923291E-3	8.654703E-3	-1.684067E-3	7.058876E-3	-9.012066E-3	2.389475E-4	1.680296E-3	-4.288318E-3	-1.748376E-3	-4.243529E-3	4.797166E-3	-1.694422E-3	7.042957E-3	3.960198E-3	1.191650E-2	3.150619E-4	-1.304118E-3	9.674390E-3	7.249217E-3	6.702252E-3	9.568264E-3	1.972828E-3	-7.115085E-3	1.538446E-3	7.386683E-3	3.669912E-3	9.508723E-3	2.683848E-3	-1.536933E-3	-3.708130E-3	-6.566881E-3	3.619811E-3	3.417816E-3	-1.781910E-3	5.179854E-3	1.182408E-2	3.480354E-3	-1.219593E-2	8.197240E-3	1.490373E-3	-5.910323E-3	-5.759810E-3	7.983678E-3	-2.297995E-3	6.423503E-3	-2.932725E-3	5.112357E-3	-7.919557E-3	-1.539808E-3	-2.950311E-3	1.117714E-2	-5.385705E-3	-6.133997E-4	2.467057E-3	2.270555E-4	5.870367E-3	4.155539E-3	-7.371318E-3	3.393301E-3	3.338779E-3	1.406644E-2	2.365474E-3	-1.166325E-3	-3.295772E-5	1.340578E-2	3.502743E-3	6.958659E-4	6.646592E-3	-1.521286E-2
2.820060E+2	-3.288957E-3	1.404824E-2	1.939534E-3	2.798021E-3	3.341810E-5	-1.248656E-3	-4.628782E-3	3.928787E-3	4.858198E-3	1.874076E-3	-8.517297E-3	1.796318E-3	3.143486E-3	7.423770E-3	1.064075E-2	5.523144E-3	-7.715742E-3	-2.573173E-3	1.053155E-2	-4.353135E-3	2.734255E-3	9.129464E-4	6.144787E-3	-1.998583E-3	5.685927E-4	1.880528E-3	8.329314E-4	5.386828E-3	2.458358E-3	-1.023122E-3	-7.178803E-3	9.177423E-3	-3.097641E-3	-1.624961E-3	6.485872E-4	4.023866E-3	7.523749E-3	-5.031832E-3	1.577431E-4	6.188464E-3	-2.825853E-3	4.732124E-3	7.543416E-4	6.020444E-3	4.808965E-3	5.081036E-3	6.874106E-3	3.816063E-3	4.050486E-4	-4.395038E-3	-2.352841E-3	1.474538E-3	3.559910E-4	-7.741024E-3	4.361809E-3	-2.326502E-3	2.469995E-3	6.450965E-3	2.763888E-3	6.030170E-3	7.666447E-4	4.685833E-3	5.690845E-3	-7.598714E-4	-2.772809E-3	-1.231637E-3	7.334778E-3	7.947802E-3	-3.147356E-3	6.965929E-3	-1.159646E-3	4.094518E-3	-5.827157E-3	-7.025772E-3	9.641298E-4	1.328143E-3	9.029252E-3	3.395155E-3	5.948792E-3	-7.291773E-4	-4.573469E-3	-1.311105E-2	9.368438E-3	-4.195742E-3	5.075971E-3	-1.797385E-3	2.332172E-3	5.103411E-3	7.978075E-3	-6.149970E-3	1.347262E-3	2.032013E-3	5.183766E-3	3.836107E-3	-2.041826E-4	7.035159E-3	4.523471E-3	1.259033E-3	-6.723361E-4	2.531600E-3	9.424889E-3	-1.946421E-3	4.461661E-3	-2.704440E-3	-4.509714E-3	2.223405E-3	3.242444E-3	7.737476E-3	3.247908E-3	1.665857E-4	-9.767110E-4	6.570628E-4	2.328566E-3	-2.981924E-5	-1.053108E-2	-2.441707E-3	9.828830E-4	3.601533E-4	6.034368E-3	-2.915636E-3	7.111892E-3	-1.514506E-3	8.744337E-3	-4.164043E-4	-3.818822E-3	8.813574E-3	5.799407E-3	7.096133E-3	-5.803449E-3	-3.121011E-3	-4.517733E-3	-2.839982E-3	-2.243478E-3	-1.270417E-2	6.693829E-3	1.300484E-2	6.186223E-3	-3.489606E-3	1.772328E-3	4.412357E-3	-2.265823E-3	-6.385684E-3	-4.358281E-3	3.328680E-3	1.128801E-2	-7.728176E-3	2.195815E-3	-4.577604E-4	1.112415E-3	-1.470172E-2	-5.625081E-3	8.261446E-4	3.917835E-3	4.237905E-3	-1.004604E-2	-1.259099E-2	5.404533E-3	4.497697E-3	-2.345239E-3	1.688001E-3	1.420135E-2	1.294384E-2	2.407151E-3	2.424117E-3	-7.165459E-3	7.932275E-3	1.022042E-3	6.478419E-3	-1.036331E-2	1.785515E-3	1.725228E-2
2.825060E+2	8.095069E-3	-2.402597E-3	-8.861313E-3	-7.354689E-3	-4.085776E-3	4.420454E-3	-1.911538E-3	9.251798E-4	-4.210966E-3	6.326019E-3	4.820807E-3	1.394703E-2	4.262895E-3	-4.325167E-3	-4.395202E-4	1.483612E-4	7.871670E-3	2.142303E-4	-8.985451E-3	1.113049E-2	7.149485E-4	1.515564E-2	-5.864960E-3	-2.093216E-4	-3.480127E-3	1.033690E-2	-1.084311E-3	1.586612E-3	6.873507E-4	1.170032E-2	8.989288E-3	-5.323816E-3	1.090597E-2	-2.063141E-3	5.693953E-3	-5.722009E-3	-3.286234E-4	3.207572E-3	1.418152E-2	9.478046E-3	3.416447E-3	9.016035E-3	-3.618463E-3	-6.787254E-3	1.541151E-3	9.630967E-3	1.004509E-2	-8.205026E-4	6.826336E-3	7.381762E-3	-2.020555E-3	2.729419E-3	1.293576E-2	1.019970E-2	5.522379E-3	2.881305E-4	5.368244E-3	-1.450867E-3	2.204099E-3	-4.874747E-4	1.145585E-3	-3.489701E-3	5.306078E-3	9.461804E-4	-2.413116E-3	5.946217E-3	-3.913806E-3	-4.591922E-3	-6.915932E-3	3.108905E-3	-5.337070E-5	-3.189420E-3	1.149814E-3	7.217659E-4	-1.878889E-3	8.382628E-5	-1.507328E-3	7.166232E-4	-7.956144E-3	3.629337E-3	-1.028117E-2	-6.223061E-3	-9.099207E-3	4.144704E-3	9.751658E-3	7.337313E-3	3.326782E-4	1.670895E-2	-7.243609E-3	-4.976111E-3	2.662437E-3	-4.660418E-3	4.799393E-3	3.522265E-3	-8.522761E-3	2.709395E-3	1.008365E-2	6.352359E-3	4.025197E-3	-2.567285E-3	1.882694E-3	-8.241526E-4	5.701105E-3	4.971534E-4	6.317733E-3	5.065653E-3	-1.116335E-2	7.416327E-3	3.647492E-3	1.462143E-2	6.005826E-3	3.124785E-3	1.095095E-3	-2.954161E-3	1.196179E-2	-4.517798E-3	4.732419E-3	-3.205929E-3	-2.569317E-3	-5.607218E-3	-5.468426E-3	-2.049847E-3	-5.288087E-3	4.084302E-3	7.053646E-3	2.733896E-3	-1.176679E-3	-5.923548E-4	1.094651E-2	3.926111E-3	9.936278E-3	3.371191E-3	6.940242E-4	9.823896E-3	-7.380505E-3	-4.363379E-3	7.481335E-3	-3.166637E-3	-3.192089E-3	1.249800E-3	6.440850E-3	8.276899E-3	-1.707358E-3	8.838619E-4	-1.371640E-3	7.974785E-4	-1.749825E-3	6.549000E-4	-1.011646E-3	1.134046E-2	-3.361503E-4	4.857116E-3	6.529079E-4	6.422328E-3	7.206505E-4	1.987267E-3	-1.924954E-3	-5.235838E-3	8.269287E-3	-1.076896E-5	-1.063975E-3	-1.777709E-3	-9.043807E-3	-6.605321E-3	1.054650E-2	5.164390E-3	-8.446837E-3	3.961398E-3	1.387578E-2	7.158098E-3	-1.013235E-2
2.830040E+2	-5.665791E-3	1.294481E-2	9.421210E-3	3.572625E-3	1.680728E-2	1.187774E-2	1.707194E-2	2.750381E-2	1.796052E-3	1.909719E-2	1.913386E-2	1.344609E-2	2.234770E-2	5.337901E-3	1.348714E-2	6.296737E-3	9.960736E-3	5.549484E-3	1.956405E-2	5.884000E-3	8.256951E-3	7.837878E-3	7.695956E-3	1.407674E-2	6.567399E-3	8.291200E-3	1.821804E-2	9.530253E-3	9.576221E-3	4.809326E-3	2.111678E-3	1.261570E-2	7.023547E-3	7.512689E-3	-1.983765E-4	9.114519E-3	9.221390E-3	1.374394E-2	3.962056E-3	5.495030E-3	1.901951E-2	8.616095E-3	1.177926E-2	8.472529E-3	4.095145E-3	5.810398E-3	8.353256E-3	1.176764E-2	7.237201E-3	1.024681E-2	1.100292E-2	1.797660E-2	1.013876E-2	6.777885E-3	1.253874E-3	4.496847E-3	5.753351E-3	2.191517E-3	-2.749921E-4	4.160490E-3	-6.549787E-3	6.875482E-3	2.456516E-2	1.303630E-2	8.615585E-3	1.015346E-2	1.181906E-2	-5.815426E-3	1.313115E-2	7.802129E-3	1.565695E-2	6.511085E-3	1.422122E-2	1.358761E-2	5.739766E-3	-3.632352E-3	1.309591E-2	1.026970E-2	3.131264E-3	2.643348E-3	1.767084E-2	4.956985E-3	6.419426E-3	8.552825E-3	1.193122E-2	1.498156E-2	5.445549E-3	-4.522312E-3	8.800548E-3	1.251699E-2	-1.659517E-3	8.178050E-3	1.156421E-2	-1.301341E-3	1.557506E-2	2.018163E-2	1.397273E-2	-2.025504E-3	4.374997E-3	-6.845343E-4	2.160920E-2	-2.823780E-3	5.275645E-3	1.679343E-2	1.440124E-2	6.277954E-3	1.890116E-2	4.038035E-3	1.097168E-2	-1.341717E-3	2.186721E-2	4.916354E-3	3.993791E-3	2.312195E-3	2.136601E-2	-9.047305E-4	1.195739E-2	7.416979E-3	6.851735E-3	1.430989E-2	1.202919E-2	9.423838E-3	-3.194772E-3	2.039901E-2	4.963931E-3	1.180740E-2	2.395140E-2	1.602591E-2	7.473125E-3	2.130423E-2	1.337314E-2	1.050007E-2	4.514140E-3	1.065846E-3	1.000225E-2	1.617601E-2	8.786554E-3	2.549354E-2	8.789932E-3	7.817798E-3	1.294958E-2	8.688069E-3	4.018442E-3	9.001356E-3	6.703635E-4	1.133934E-2	-3.148623E-3	9.111115E-3	1.335881E-2	6.604705E-3	2.278071E-2	1.571051E-2	1.958899E-2	6.847630E-3	8.763596E-3	7.762347E-3	2.888817E-2	1.036202E-2	1.237464E-2	1.022617E-2	6.366284E-3	-9.482673E-3	3.247805E-3	1.433775E-2	4.831542E-3	1.601773E-2	9.927440E-3	1.028228E-2	-5.009536E-3	-4.956941E-3	9.134157E-3
2.835020E+2	2.702299E-2	2.317487E-2	1.739062E-2	3.522093E-3	2.153488E-2	1.652601E-2	1.734306E-2	2.358955E-2	3.074450E-2	1.686157E-2	2.338739E-2	3.030163E-2	1.642404E-2	2.163415E-2	2.114947E-2	2.644729E-2	2.399992E-2	2.094451E-2	1.994742E-2	2.478431E-2	3.123564E-2	1.988842E-2	1.975707E-2	1.062815E-2	3.634733E-2	3.417187E-2	1.931559E-2	1.564502E-2	2.650485E-2	1.393592E-2	2.369526E-2	2.494401E-2	2.022382E-2	1.629152E-2	1.663422E-2	1.449124E-2	2.272190E-2	2.144611E-2	2.357483E-2	2.274615E-2	2.013663E-2	2.158628E-2	2.817004E-2	2.808046E-2	2.899579E-2	2.454826E-2	2.568385E-2	2.379759E-2	1.706557E-2	1.878147E-2	2.656401E-2	1.650188E-2	2.780683E-2	2.664400E-2	1.473124E-2	2.122011E-2	2.551967E-2	2.508770E-2	1.683217E-2	2.007697E-2	2.616296E-2	1.362813E-2	2.341587E-2	2.179950E-2	1.556260E-2	3.066555E-2	2.675847E-2	2.156683E-2	2.499747E-2	1.022918E-2	1.988868E-2	1.310248E-2	2.814997E-2	2.143918E-2	1.822961E-2	1.529614E-2	1.255248E-2	2.219911E-2	1.720465E-2	1.721683E-2	3.205578E-2	2.975260E-2	1.744756E-2	3.339821E-2	1.392978E-2	1.348654E-2	2.661296E-2	1.998315E-2	2.486948E-2	9.222716E-3	3.168652E-2	1.466166E-2	3.535416E-2	1.781856E-2	2.232392E-2	1.369649E-2	1.504295E-2	2.630447E-2	3.123366E-2	7.287495E-3	2.131350E-2	2.419672E-2	2.482023E-2	3.192535E-2	3.023813E-2	2.069416E-2	1.498806E-2	1.572986E-2	1.752672E-2	8.585786E-3	2.016533E-2	2.306790E-2	1.608903E-2	2.333049E-2	1.895593E-2	2.751435E-2	3.131445E-2	2.775693E-2	2.464712E-2	2.686431E-2	1.895261E-2	2.787698E-2	2.155464E-2	2.328674E-2	2.173244E-2	3.438053E-2	2.343259E-2	1.502779E-2	3.234937E-2	1.809802E-2	2.690821E-2	1.237605E-2	1.955071E-2	3.151876E-2	1.265925E-2	2.033172E-2	2.520826E-2	3.259180E-2	2.515925E-2	2.939351E-2	2.345283E-2	1.949826E-2	3.157166E-2	2.938095E-2	3.196635E-2	3.861849E-2	1.628762E-2	3.248404E-2	3.305109E-2	1.628449E-2	2.982169E-2	2.213451E-2	1.521404E-2	1.593903E-2	3.421469E-2	5.909615E-3	1.864161E-2	2.849715E-2	1.338098E-2	2.203468E-2	2.162774E-2	1.008213E-2	3.421015E-2	2.437535E-2	2.010353E-2	2.779741E-2	2.393542E-2	2.037479E-2	2.031848E-2	2.904977E-2	2.487913E-2
2.840000E+2	3.384101E-2	4.066864E-2	5.090262E-2	5.087383E-2	4.325275E-2	4.472929E-2	5.925401E-2	5.152525E-2	5.931144E-2	4.945509E-2	5.137104E-2	3.366599E-2	5.252739E-2	4.492160E-2	3.598144E-2	5.060599E-2	6.424970E-2	4.401099E-2	6.616728E-2	3.527823E-2	4.577541E-2	5.358250E-2	4.461063E-2	4.535910E-2	4.149395E-2	4.593755E-2	6.086370E-2	3.440512E-2	6.867798E-2	5.559969E-2	5.233184E-2	6.309839E-2	4.748369E-2	5.288168E-2	5.471486E-2	5.201282E-2	6.081955E-2	5.986419E-2	4.410755E-2	5.754266E-2	2.228209E-2	4.587347E-2	5.443783E-2	4.427286E-2	5.196162E-2	6.172327E-2	3.728894E-2	5.371438E-2	6.819524E-2	3.036486E-2	4.784338E-2	4.692024E-2	4.546546E-2	5.469142E-2	5.308552E-2	7.614272E-2	4.445065E-2	5.077112E-2	6.307870E-2	3.662814E-2	5.949037E-2	5.742627E-2	4.935978E-2	5.623721E-2	4.201202E-2	5.614546E-2	5.657767E-2	4.699039E-2	4.430109E-2	4.506724E-2	5.640809E-2	3.709891E-2	4.277367E-2	6.800276E-2	5.241269E-2	4.609112E-2	6.561231E-2	5.233709E-2	4.322994E-2	6.904929E-2	4.442073E-2	5.656205E-2	5.840943E-2	4.678272E-2	5.737788E-2	5.250269E-2	7.447045E-2	4.095519E-2	7.244499E-2	4.523513E-2	5.188467E-2	4.571071E-2	3.121552E-2	5.029391E-2	6.419426E-2	4.907718E-2	7.156249E-2	4.017427E-2	5.565996E-2	3.452834E-2	4.546146E-2	4.596383E-2	5.739765E-2	6.521440E-2	5.689758E-2	4.187039E-2	6.016367E-2	5.641484E-2	6.219774E-2	4.313179E-2	5.833374E-2	5.089415E-2	2.532518E-2	5.994081E-2	6.502888E-2	4.445082E-2	5.965008E-2	4.495593E-2	5.192505E-2	4.872632E-2	6.544762E-2	5.259891E-2	4.743866E-2	3.693073E-2	5.558908E-2	5.957622E-2	5.235969E-2	5.932598E-2	3.899712E-2	7.338371E-2	4.004619E-2	5.226041E-2	5.337879E-2	5.382518E-2	5.877174E-2	6.534382E-2	5.894135E-2	4.541058E-2	5.173126E-2	4.011184E-2	5.587960E-2	4.607205E-2	6.188586E-2	5.734558E-2	7.244294E-2	4.541640E-2	5.926535E-2	5.861646E-2	5.356964E-2	4.678888E-2	3.124800E-2	6.013895E-2	4.074742E-2	5.979679E-2	4.083716E-2	5.766134E-2	6.161302E-2	6.267403E-2	4.924521E-2	5.356023E-2	5.213410E-2	4.984204E-2	4.747939E-2	6.466890E-2	6.524393E-2	6.531361E-2	6.020368E-2	4.747009E-2	6.689535E-2	5.672247E-2	6.595176E-2
2.841030E+2	6.608459E-2	4.570553E-2	6.163475E-2	6.287735E-2	5.065583E-2	7.228092E-2	5.673901E-2	7.015605E-2	5.024977E-2	6.427182E-2	7.578133E-2	6.015295E-2	6.261679E-2	5.027570E-2	5.434107E-2	5.523818E-2	5.920961E-2	6.246524E-2	6.635514E-2	6.626244E-2	6.109039E-2	6.579859E-2	8.730218E-2	5.317720E-2	5.667431E-2	6.758674E-2	6.016042E-2	7.941951E-2	6.161110E-2	5.037763E-2	6.463058E-2	4.754569E-2	6.078700E-2	7.410582E-2	6.303541E-2	5.439685E-2	6.022647E-2	6.824741E-2	5.540761E-2	5.390296E-2	5.678711E-2	5.776830E-2	6.530919E-2	5.906316E-2	5.682165E-2	7.161931E-2	4.755765E-2	5.762811E-2	7.218842E-2	8.049333E-2	5.533375E-2	4.683737E-2	8.588844E-2	7.199573E-2	6.129484E-2	7.307512E-2	7.395260E-2	4.816820E-2	6.498775E-2	3.000022E-2	6.359481E-2	6.591552E-2	4.439888E-2	7.893770E-2	5.796283E-2	5.216444E-2	4.893367E-2	8.176545E-2	8.472302E-2	5.116019E-2	4.195502E-2	6.810365E-2	6.213446E-2	5.933153E-2	5.837868E-2	6.392693E-2	5.995277E-2	6.772847E-2	5.991936E-2	6.084804E-2	5.518867E-2	6.185419E-2	6.813518E-2	6.201822E-2	4.648561E-2	7.798223E-2	6.464765E-2	6.146516E-2	5.483769E-2	7.310919E-2	4.585984E-2	6.059873E-2	7.293332E-2	7.473211E-2	7.349799E-2	6.861230E-2	5.976454E-2	7.520378E-2	7.407179E-2	6.579141E-2	6.155305E-2	6.236035E-2	5.485032E-2	4.181054E-2	5.471990E-2	4.699757E-2	5.588618E-2	6.449803E-2	7.452018E-2	5.647440E-2	4.908966E-2	6.211383E-2	8.512670E-2	5.739419E-2	3.781316E-2	5.733884E-2	6.956857E-2	5.325948E-2	5.888774E-2	5.429690E-2	5.785643E-2	3.175499E-2	7.595603E-2	7.126594E-2	7.809621E-2	6.961292E-2	9.750362E-2	6.233165E-2	7.845951E-2	7.526415E-2	7.399887E-2	6.022118E-2	6.608364E-2	6.777452E-2	5.441295E-2	8.678813E-2	5.088716E-2	6.983808E-2	6.116193E-2	7.717642E-2	6.481021E-2	6.044498E-2	8.048564E-2	7.010439E-2	6.297778E-2	6.870690E-2	5.016431E-2	6.042532E-2	4.664528E-2	6.872968E-2	6.275305E-2	6.424969E-2	6.378988E-2	4.494848E-2	8.496084E-2	7.750297E-2	5.433695E-2	5.368582E-2	6.328845E-2	6.926215E-2	6.654826E-2	6.559365E-2	5.637300E-2	5.897849E-2	5.876607E-2	5.792553E-2	8.002619E-2	6.802120E-2	8.135295E-2	6.818276E-2	4.709511E-2
2.842030E+2	6.256632E-2	6.159014E-2	5.820221E-2	7.426209E-2	6.635151E-2	5.718481E-2	6.381700E-2	7.313350E-2	5.208663E-2	4.514100E-2	7.454999E-2	7.387269E-2	9.328009E-2	7.198328E-2	6.090740E-2	5.243341E-2	7.419486E-2	7.248537E-2	6.989695E-2	6.836061E-2	6.805734E-2	7.113006E-2	5.715937E-2	7.606710E-2	6.033347E-2	5.571536E-2	6.608318E-2	5.293817E-2	6.197615E-2	7.243131E-2	7.660132E-2	7.214361E-2	6.770601E-2	6.637344E-2	7.087293E-2	5.775906E-2	6.132932E-2	8.139651E-2	5.978790E-2	4.487337E-2	5.008160E-2	5.730858E-2	7.828402E-2	5.930428E-2	6.186445E-2	7.961520E-2	6.712227E-2	8.325314E-2	6.036265E-2	7.506394E-2	6.148735E-2	6.830731E-2	6.227555E-2	7.663547E-2	5.016145E-2	6.945423E-2	6.965183E-2	6.476269E-2	6.220542E-2	6.388185E-2	6.912278E-2	6.037766E-2	6.623946E-2	6.339720E-2	5.783401E-2	5.734077E-2	6.248545E-2	5.703680E-2	6.637595E-2	5.338101E-2	6.254100E-2	6.286635E-2	7.429795E-2	6.956174E-2	5.778074E-2	7.547368E-2	8.045294E-2	6.820194E-2	7.714739E-2	8.137444E-2	6.240384E-2	5.067977E-2	5.400428E-2	5.115820E-2	8.157614E-2	6.747501E-2	6.246848E-2	6.829123E-2	8.337240E-2	7.554077E-2	6.778805E-2	5.894373E-2	7.226834E-2	6.348169E-2	5.707431E-2	7.425306E-2	5.712474E-2	6.721829E-2	5.103348E-2	6.530873E-2	7.473921E-2	5.690401E-2	6.475498E-2	5.814430E-2	7.214357E-2	6.733153E-2	7.630536E-2	4.879230E-2	5.946020E-2	5.203902E-2	7.191885E-2	5.579387E-2	6.319562E-2	5.149062E-2	7.386744E-2	6.109366E-2	7.258219E-2	5.601383E-2	5.210400E-2	6.421752E-2	6.769987E-2	5.818578E-2	7.258659E-2	6.902117E-2	7.678099E-2	6.236306E-2	5.167148E-2	7.283726E-2	4.878674E-2	7.922229E-2	9.265593E-2	5.507558E-2	7.279867E-2	6.277969E-2	7.101280E-2	8.344995E-2	6.686902E-2	4.216031E-2	7.189767E-2	4.470954E-2	6.120462E-2	6.672328E-2	6.959825E-2	5.330383E-2	7.376516E-2	8.179369E-2	6.416450E-2	7.112179E-2	8.108485E-2	6.167229E-2	5.944400E-2	6.150673E-2	6.684614E-2	7.513661E-2	7.714718E-2	7.019059E-2	6.921054E-2	5.312474E-2	7.386533E-2	6.229225E-2	7.513455E-2	5.560744E-2	5.747542E-2	6.350341E-2	5.894074E-2	7.614957E-2	6.029702E-2	8.502398E-2	6.047294E-2	6.142585E-2	4.317968E-2
2.843040E+2	8.472223E-2	6.315511E-2	9.995291E-2	6.989925E-2	9.380255E-2	1.002478E-1	9.305308E-2	8.803489E-2	8.645001E-2	5.971728E-2	6.933872E-2	9.486368E-2	7.795902E-2	8.026319E-2	6.903755E-2	9.636317E-2	8.262808E-2	8.198476E-2	8.001093E-2	7.235385E-2	8.917653E-2	8.171701E-2	1.026829E-1	8.450521E-2	7.392434E-2	7.626757E-2	8.605402E-2	6.239638E-2	9.458093E-2	6.754053E-2	7.799564E-2	1.027866E-1	8.679637E-2	9.664380E-2	8.906008E-2	8.547802E-2	8.370169E-2	7.655208E-2	8.478822E-2	7.889176E-2	7.583833E-2	8.994490E-2	9.245098E-2	8.645972E-2	1.031469E-1	7.123309E-2	6.169995E-2	9.162271E-2	1.086555E-1	9.949962E-2	8.066267E-2	8.566235E-2	7.784900E-2	9.721838E-2	9.373671E-2	9.674432E-2	8.583364E-2	9.217788E-2	6.673059E-2	7.824964E-2	8.194902E-2	9.090878E-2	8.108130E-2	1.016508E-1	7.618902E-2	7.929416E-2	6.690779E-2	7.730040E-2	7.862750E-2	8.354238E-2	7.873972E-2	7.515462E-2	1.081381E-1	7.656231E-2	8.423678E-2	9.345497E-2	8.210934E-2	8.361443E-2	9.935302E-2	8.710150E-2	8.325194E-2	9.291824E-2	7.331909E-2	8.199318E-2	8.572894E-2	8.293778E-2	8.782174E-2	8.836711E-2	9.795957E-2	8.897319E-2	8.748262E-2	7.201034E-2	7.763360E-2	6.753379E-2	7.798153E-2	7.935703E-2	9.144116E-2	8.155458E-2	5.906024E-2	8.021921E-2	8.396923E-2	6.447319E-2	1.052910E-1	7.969944E-2	7.626596E-2	8.143329E-2	6.282132E-2	7.927695E-2	8.712366E-2	8.775110E-2	7.883001E-2	8.720052E-2	7.355471E-2	8.287326E-2	8.410168E-2	8.009113E-2	8.694927E-2	8.366980E-2	9.962895E-2	8.658461E-2	9.018789E-2	8.458123E-2	7.421844E-2	7.421243E-2	8.545874E-2	9.031585E-2	1.059794E-1	8.372566E-2	9.291351E-2	8.262782E-2	7.833670E-2	7.454460E-2	9.184542E-2	1.014285E-1	9.145514E-2	8.329135E-2	8.061986E-2	9.358094E-2	9.350577E-2	8.674041E-2	7.900589E-2	8.799969E-2	7.592945E-2	1.043308E-1	9.593014E-2	9.250962E-2	7.401925E-2	9.274726E-2	8.007159E-2	7.516184E-2	9.574836E-2	9.088984E-2	7.327636E-2	9.089493E-2	8.799548E-2	8.519341E-2	9.750238E-2	7.379988E-2	7.682382E-2	7.038237E-2	7.975007E-2	8.014274E-2	8.506857E-2	7.591064E-2	8.658896E-2	7.675002E-2	8.877847E-2	1.026130E-1	9.360819E-2	1.047745E-1	1.238598E-1
2.844030E+2	1.452109E-1	1.362285E-1	1.360301E-1	1.181211E-1	1.268668E-1	1.177330E-1	1.515788E-1	1.289253E-1	1.147319E-1	1.156146E-1	1.200263E-1	9.884332E-2	1.339664E-1	1.167875E-1	1.399939E-1	1.152616E-1	1.283203E-1	1.277606E-1	1.264271E-1	1.293423E-1	1.314430E-1	1.060700E-1	1.204288E-1	1.288000E-1	1.265116E-1	1.271218E-1	1.333807E-1	1.364715E-1	1.375606E-1	1.179499E-1	1.421770E-1	1.628724E-1	1.133906E-1	1.283093E-1	1.321438E-1	1.254491E-1	1.243822E-1	1.427049E-1	1.595821E-1	1.237247E-1	1.243521E-1	1.597956E-1	1.394001E-1	1.132311E-1	1.314715E-1	1.082749E-1	1.264018E-1	1.266649E-1	1.210245E-1	1.501961E-1	1.241130E-1	1.306386E-1	1.275968E-1	1.366818E-1	1.263363E-1	1.565060E-1	1.236005E-1	1.426406E-1	1.471797E-1	1.180202E-1	1.353142E-1	1.312887E-1	1.157037E-1	1.152739E-1	1.075902E-1	1.190001E-1	1.473807E-1	1.070628E-1	1.414580E-1	1.272237E-1	1.316214E-1	1.412917E-1	1.367542E-1	1.187679E-1	1.198816E-1	1.126700E-1	1.438921E-1	1.142115E-1	1.305518E-1	1.301081E-1	1.294028E-1	1.263687E-1	1.232974E-1	1.263253E-1	1.427020E-1	1.462142E-1	1.400590E-1	1.474447E-1	1.276635E-1	1.381949E-1	1.276633E-1	1.380766E-1	1.342075E-1	1.327424E-1	1.368215E-1	1.310263E-1	1.282189E-1	1.195617E-1	1.505528E-1	1.140849E-1	1.567397E-1	1.287321E-1	1.082192E-1	1.205261E-1	1.662838E-1	1.436242E-1	1.222866E-1	1.258204E-1	1.201095E-1	1.249749E-1	1.302134E-1	1.397898E-1	1.175410E-1	1.702725E-1	1.321500E-1	1.339334E-1	1.401268E-1	1.340414E-1	1.156958E-1	1.288636E-1	1.323935E-1	1.324524E-1	1.228943E-1	1.247907E-1	1.421061E-1	1.102742E-1	1.096097E-1	1.408832E-1	1.523565E-1	1.393187E-1	1.261799E-1	1.216541E-1	1.333423E-1	1.220561E-1	1.316182E-1	1.284156E-1	1.278996E-1	1.291501E-1	1.213295E-1	1.371144E-1	1.301576E-1	1.305035E-1	1.155487E-1	1.365152E-1	1.442828E-1	1.442682E-1	1.251522E-1	1.364378E-1	1.128782E-1	1.404514E-1	1.192304E-1	1.239754E-1	1.238077E-1	1.242193E-1	1.280775E-1	1.354179E-1	1.526299E-1	1.240468E-1	1.286468E-1	1.394557E-1	1.231039E-1	1.253139E-1	1.055741E-1	1.159343E-1	1.401951E-1	1.139314E-1	1.246046E-1	1.153275E-1	1.515619E-1	1.624012E-1	1.857245E-1
2.845030E+2	1.724949E-1	1.768274E-1	1.895146E-1	1.625378E-1	1.860278E-1	1.925027E-1	1.839061E-1	1.856349E-1	1.770937E-1	1.896064E-1	1.926706E-1	1.749724E-1	1.802360E-1	1.947749E-1	1.730559E-1	1.834820E-1	2.033137E-1	1.762445E-1	2.100590E-1	1.882904E-1	1.768196E-1	1.792715E-1	1.936616E-1	1.819503E-1	1.987018E-1	2.002182E-1	1.907138E-1	1.872203E-1	2.041469E-1	1.725321E-1	1.791795E-1	1.794742E-1	1.817902E-1	2.000621E-1	2.340042E-1	1.615254E-1	1.763070E-1	1.775763E-1	1.827753E-1	1.924560E-1	2.235345E-1	1.871724E-1	2.096653E-1	1.946542E-1	1.957055E-1	2.093824E-1	1.824584E-1	2.070928E-1	1.743563E-1	1.875776E-1	1.865249E-1	1.831570E-1	1.732944E-1	1.871419E-1	2.034313E-1	1.801341E-1	1.780343E-1	1.868363E-1	1.995632E-1	1.886057E-1	1.632730E-1	1.904941E-1	1.689723E-1	1.976416E-1	1.795222E-1	2.063140E-1	1.744195E-1	1.600396E-1	2.055466E-1	2.150313E-1	2.039109E-1	1.842367E-1	1.905366E-1	1.999887E-1	1.940054E-1	1.957285E-1	1.919430E-1	2.147064E-1	2.015865E-1	1.820959E-1	1.972890E-1	1.815650E-1	1.552568E-1	2.075819E-1	1.897039E-1	2.071753E-1	1.933651E-1	2.028365E-1	1.853552E-1	1.959349E-1	1.900483E-1	1.908932E-1	1.863052E-1	2.000333E-1	1.959712E-1	2.097707E-1	1.698374E-1	1.866925E-1	1.788012E-1	2.024224E-1	1.733484E-1	1.814611E-1	1.877817E-1	1.944171E-1	2.022899E-1	2.082990E-1	1.469670E-1	1.773751E-1	1.904810E-1	1.823656E-1	1.786410E-1	2.018811E-1	1.776049E-1	1.775511E-1	2.102325E-1	1.683697E-1	2.073816E-1	1.998689E-1	1.771803E-1	1.573170E-1	1.848047E-1	1.811467E-1	1.645984E-1	1.799439E-1	1.872624E-1	1.939004E-1	2.156515E-1	1.976992E-1	1.979487E-1	2.005425E-1	2.020549E-1	1.781866E-1	1.716079E-1	2.216679E-1	1.869688E-1	1.810257E-1	1.810099E-1	1.876876E-1	1.798019E-1	1.877213E-1	1.949362E-1	1.841203E-1	1.942904E-1	1.810552E-1	1.807176E-1	1.847619E-1	1.784755E-1	1.568657E-1	1.749399E-1	1.963016E-1	1.998187E-1	1.797856E-1	2.031105E-1	1.788145E-1	2.106852E-1	1.965451E-1	2.381822E-1	1.699009E-1	1.959499E-1	1.609254E-1	1.467855E-1	1.766035E-1	1.532758E-1	1.834407E-1	1.720450E-1	1.806996E-1	1.846602E-1	1.992130E-1	1.861634E-1	2.127284E-1	2.487499E-1
2.846030E+2	2.840642E-1	2.360453E-1	2.755166E-1	2.396476E-1	2.764399E-1	2.874451E-1	2.586234E-1	2.821210E-1	2.322391E-1	2.749092E-1	2.894152E-1	2.721755E-1	2.569889E-1	3.181854E-1	2.575414E-1	2.941408E-1	2.930484E-1	2.485579E-1	2.861689E-1	2.703987E-1	2.942616E-1	2.589143E-1	3.150486E-1	3.298554E-1	3.007218E-1	3.200551E-1	2.962569E-1	3.097728E-1	3.069108E-1	2.953269E-1	2.971359E-1	3.228623E-1	3.145076E-1	3.076679E-1	3.238023E-1	3.238189E-1	2.911174E-1	3.114444E-1	2.765526E-1	3.118501E-1	2.960922E-1	3.275180E-1	2.881044E-1	3.264902E-1	2.895818E-1	3.028891E-1	3.098126E-1	2.888550E-1	2.855233E-1	3.223190E-1	3.253643E-1	3.119911E-1	3.060049E-1	3.167411E-1	2.920078E-1	2.589951E-1	2.980334E-1	3.060655E-1	2.950458E-1	2.743418E-1	2.968354E-1	3.183238E-1	2.730420E-1	3.213986E-1	3.179599E-1	2.967738E-1	2.959382E-1	2.753592E-1	2.889082E-1	2.994994E-1	2.824397E-1	2.603302E-1	2.903493E-1	2.890312E-1	2.773959E-1	3.129514E-1	3.127606E-1	2.916574E-1	2.628094E-1	2.652374E-1	2.872615E-1	2.819182E-1	3.085980E-1	2.699284E-1	2.787283E-1	3.004591E-1	2.850464E-1	2.788578E-1	2.494657E-1	3.151327E-1	3.098918E-1	3.022324E-1	3.088392E-1	2.847809E-1	3.029416E-1	3.054688E-1	3.064478E-1	2.994547E-1	2.749365E-1	2.939440E-1	3.227796E-1	3.014079E-1	2.895621E-1	3.083622E-1	3.162680E-1	2.695784E-1	3.285261E-1	3.133985E-1	3.282130E-1	2.595717E-1	2.980984E-1	2.842045E-1	2.574411E-1	2.825927E-1	3.159952E-1	2.903039E-1	2.905425E-1	2.856609E-1	3.352772E-1	2.833330E-1	2.964240E-1	2.858340E-1	2.969583E-1	2.788713E-1	2.843313E-1	2.832093E-1	2.647043E-1	2.748834E-1	2.713952E-1	2.943705E-1	3.250643E-1	3.195473E-1	2.857525E-1	2.634075E-1	2.803807E-1	2.719410E-1	3.019885E-1	3.071471E-1	2.669471E-1	2.845846E-1	2.518915E-1	2.831055E-1	2.936138E-1	2.937122E-1	2.731745E-1	2.615176E-1	2.584423E-1	2.438796E-1	2.869051E-1	2.717225E-1	2.868043E-1	2.755666E-1	2.569909E-1	2.998605E-1	2.960905E-1	3.063189E-1	2.929668E-1	2.784027E-1	2.597144E-1	2.954985E-1	2.800124E-1	2.817590E-1	2.896853E-1	2.688971E-1	2.994775E-1	2.722178E-1	2.916828E-1	2.864165E-1	2.953250E-1	3.138409E-1	3.070678E-1
2.847020E+2	5.089097E-1	4.775553E-1	4.842492E-1	5.036356E-1	4.944159E-1	4.673578E-1	4.890555E-1	5.170126E-1	4.925541E-1	4.869835E-1	5.058079E-1	4.978100E-1	4.945525E-1	5.162409E-1	4.601506E-1	5.106320E-1	5.307534E-1	5.079905E-1	4.896483E-1	4.743229E-1	4.752002E-1	5.011681E-1	5.834554E-1	5.744705E-1	5.727103E-1	5.305715E-1	5.322668E-1	5.718073E-1	5.737849E-1	5.745858E-1	5.663756E-1	5.330712E-1	5.668460E-1	5.582565E-1	5.740510E-1	5.392017E-1	5.692360E-1	5.593452E-1	5.375754E-1	5.394644E-1	5.279275E-1	5.635464E-1	5.824242E-1	5.414381E-1	5.457307E-1	5.631576E-1	5.416670E-1	5.356056E-1	5.526862E-1	4.948940E-1	5.574908E-1	5.598228E-1	5.516720E-1	5.362134E-1	5.605429E-1	5.245269E-1	5.660902E-1	5.559264E-1	5.540370E-1	5.155731E-1	5.310939E-1	5.229492E-1	5.502437E-1	5.347649E-1	5.406972E-1	5.037950E-1	5.782749E-1	5.325407E-1	5.251076E-1	5.486537E-1	4.907293E-1	5.647280E-1	5.869361E-1	4.939410E-1	5.009105E-1	5.512006E-1	5.403681E-1	5.704269E-1	5.377892E-1	5.184818E-1	5.275466E-1	5.584423E-1	4.944577E-1	5.457901E-1	5.285309E-1	5.221107E-1	5.294749E-1	5.094998E-1	5.355485E-1	5.247929E-1	5.464181E-1	5.441037E-1	5.315112E-1	4.878585E-1	5.120223E-1	5.384012E-1	4.792828E-1	5.601868E-1	5.188950E-1	4.995039E-1	5.162362E-1	5.313717E-1	5.279882E-1	4.959322E-1	5.455129E-1	5.575112E-1	5.202653E-1	5.072770E-1	5.134311E-1	4.999349E-1	5.032409E-1	5.223100E-1	5.182928E-1	5.104278E-1	5.621724E-1	5.179470E-1	5.087870E-1	5.030032E-1	5.179261E-1	4.834791E-1	5.239373E-1	5.400957E-1	5.222056E-1	5.384428E-1	5.207652E-1	5.007696E-1	5.304448E-1	5.085140E-1	5.103837E-1	4.547760E-1	5.068765E-1	5.337684E-1	5.023727E-1	5.262238E-1	5.313694E-1	5.132727E-1	5.124612E-1	5.380603E-1	5.093558E-1	4.909812E-1	5.064331E-1	5.106621E-1	5.085335E-1	5.081156E-1	5.176747E-1	5.066076E-1	5.064316E-1	4.915420E-1	5.153968E-1	5.376866E-1	5.343114E-1	5.289890E-1	4.475227E-1	5.282380E-1	5.217645E-1	5.585052E-1	4.938340E-1	4.830461E-1	4.793592E-1	5.662881E-1	5.605964E-1	5.074445E-1	4.921247E-1	4.961784E-1	4.964648E-1	5.089016E-1	5.189785E-1	5.424978E-1	5.246803E-1	4.383131E-1	5.273406E-1
2.848000E+2	9.476580E-1	1.028046E+0	9.948718E-1	9.757564E-1	9.261112E-1	9.871244E-1	9.002103E-1	9.471715E-1	1.014297E+0	1.024509E+0	9.507980E-1	1.002157E+0	9.729515E-1	1.030262E+0	9.611631E-1	1.009702E+0	9.846584E-1	9.810999E-1	9.431703E-1	8.900978E-1	1.000868E+0	9.795395E-1	1.005348E+0	1.026471E+0	1.001176E+0	1.056088E+0	9.925717E-1	1.091964E+0	1.012973E+0	9.925002E-1	1.084944E+0	9.913512E-1	1.034143E+0	1.043996E+0	1.027388E+0	9.963402E-1	9.921988E-1	9.891906E-1	1.029709E+0	1.010058E+0	1.015200E+0	1.054771E+0	9.787424E-1	1.027255E+0	1.027021E+0	9.597966E-1	1.017282E+0	1.043698E+0	9.906825E-1	1.063080E+0	1.021530E+0	1.040336E+0	1.011739E+0	1.062669E+0	1.048596E+0	1.004997E+0	9.683960E-1	1.031236E+0	1.037197E+0	1.027829E+0	9.902471E-1	1.006987E+0	1.040186E+0	9.754191E-1	1.041750E+0	9.922962E-1	1.052194E+0	1.008108E+0	9.972556E-1	1.025997E+0	1.036201E+0	9.820911E-1	1.040072E+0	9.802901E-1	9.753193E-1	1.037890E+0	1.061668E+0	9.944317E-1	9.824313E-1	1.017495E+0	1.017985E+0	1.067839E+0	1.007311E+0	1.005981E+0	1.025064E+0	1.024551E+0	1.063198E+0	9.795498E-1	9.822539E-1	1.027898E+0	9.940963E-1	1.026564E+0	1.064375E+0	9.942461E-1	9.970788E-1	1.022102E+0	1.025563E+0	1.018478E+0	9.216318E-1	9.881204E-1	1.000736E+0	9.492098E-1	1.040275E+0	1.037641E+0	9.939536E-1	9.699332E-1	1.001204E+0	9.099319E-1	1.026746E+0	9.403280E-1	1.004478E+0	1.045037E+0	9.753910E-1	9.675265E-1	1.029753E+0	9.290112E-1	1.009535E+0	1.023909E+0	1.032063E+0	9.693306E-1	9.944622E-1	9.209912E-1	9.703122E-1	1.007757E+0	9.455187E-1	9.578715E-1	1.031262E+0	9.437252E-1	9.244834E-1	1.014748E+0	1.001227E+0	9.806079E-1	1.009537E+0	9.767324E-1	9.678394E-1	9.926192E-1	1.011670E+0	1.017613E+0	1.060915E+0	1.024763E+0	1.025707E+0	9.437216E-1	1.063879E+0	9.348087E-1	9.370668E-1	9.929216E-1	9.669541E-1	9.918868E-1	1.007805E+0	9.860733E-1	1.059777E+0	9.983717E-1	9.434414E-1	1.039798E+0	1.041602E+0	1.004238E+0	9.960664E-1	9.910860E-1	1.007079E+0	9.583104E-1	1.019742E+0	1.015427E+0	9.833907E-1	1.018173E+0	9.891536E-1	9.833597E-1	9.957411E-1	1.012846E+0	9.666500E-1	1.014170E+0	1.099844E+0
2.849020E+2	1.459602E+0	1.540693E+0	1.416631E+0	1.375468E+0	1.387401E+0	1.485629E+0	1.368839E+0	1.469392E+0	1.386390E+0	1.380831E+0	1.436288E+0	1.448472E+0	1.467012E+0	1.399193E+0	1.462304E+0	1.399625E+0	1.412442E+0	1.437136E+0	1.438611E+0	1.439385E+0	1.411965E+0	1.428067E+0	1.448963E+0	1.419112E+0	1.352143E+0	1.430679E+0	1.431851E+0	1.387557E+0	1.394171E+0	1.462529E+0	1.417328E+0	1.453823E+0	1.346302E+0	1.465603E+0	1.392571E+0	1.406049E+0	1.392124E+0	1.430551E+0	1.458118E+0	1.483607E+0	1.386124E+0	1.421018E+0	1.389324E+0	1.389343E+0	1.459989E+0	1.438380E+0	1.421102E+0	1.421702E+0	1.438063E+0	1.397286E+0	1.393109E+0	1.436300E+0	1.384829E+0	1.396142E+0	1.474440E+0	1.445025E+0	1.432780E+0	1.383921E+0	1.433212E+0	1.407139E+0	1.467542E+0	1.406300E+0	1.425509E+0	1.481875E+0	1.440259E+0	1.386391E+0	1.495050E+0	1.347654E+0	1.472442E+0	1.453198E+0	1.398124E+0	1.399194E+0	1.407490E+0	1.428205E+0	1.411668E+0	1.512867E+0	1.538447E+0	1.512495E+0	1.412639E+0	1.432119E+0	1.412661E+0	1.448922E+0	1.422506E+0	1.409222E+0	1.450929E+0	1.508220E+0	1.497456E+0	1.414199E+0	1.356760E+0	1.391702E+0	1.455037E+0	1.468875E+0	1.483531E+0	1.440918E+0	1.469231E+0	1.432099E+0	1.458330E+0	1.439853E+0	1.362945E+0	1.394998E+0	1.415824E+0	1.417977E+0	1.498116E+0	1.461634E+0	1.495258E+0	1.414926E+0	1.454989E+0	1.362424E+0	1.478550E+0	1.373827E+0	1.470138E+0	1.469026E+0	1.438428E+0	1.436680E+0	1.468091E+0	1.445393E+0	1.424953E+0	1.424335E+0	1.405810E+0	1.377323E+0	1.427207E+0	1.466170E+0	1.483255E+0	1.515709E+0	1.396461E+0	1.517652E+0	1.479211E+0	1.490845E+0	1.498388E+0	1.417443E+0	1.482964E+0	1.428281E+0	1.403556E+0	1.452419E+0	1.435127E+0	1.386797E+0	1.406333E+0	1.469106E+0	1.479348E+0	1.411404E+0	1.474396E+0	1.408298E+0	1.399954E+0	1.394507E+0	1.486178E+0	1.432810E+0	1.448927E+0	1.427883E+0	1.444111E+0	1.427766E+0	1.481262E+0	1.410756E+0	1.332576E+0	1.432745E+0	1.565330E+0	1.454514E+0	1.468509E+0	1.456340E+0	1.370223E+0	1.443454E+0	1.615628E+0	1.471980E+0	1.361127E+0	1.425712E+0	1.470683E+0	1.443682E+0	1.396597E+0	1.440489E+0	1.405508E+0	1.518857E+0	1.411042E+0
2.850010E+2	1.548522E+0	1.501746E+0	1.505068E+0	1.369671E+0	1.459376E+0	1.555570E+0	1.536767E+0	1.563095E+0	1.475398E+0	1.435049E+0	1.463984E+0	1.476555E+0	1.506940E+0	1.508809E+0	1.441630E+0	1.509166E+0	1.402375E+0	1.526734E+0	1.390054E+0	1.510328E+0	1.446167E+0	1.443692E+0	1.479730E+0	1.473519E+0	1.409106E+0	1.447983E+0	1.380500E+0	1.468460E+0	1.408478E+0	1.475205E+0	1.513453E+0	1.431855E+0	1.442051E+0	1.522081E+0	1.451460E+0	1.391031E+0	1.427921E+0	1.500259E+0	1.453874E+0	1.408262E+0	1.390287E+0	1.419827E+0	1.484261E+0	1.440550E+0	1.445849E+0	1.373528E+0	1.485236E+0	1.462003E+0	1.443172E+0	1.536332E+0	1.438017E+0	1.406096E+0	1.444558E+0	1.414869E+0	1.453416E+0	1.520351E+0	1.459803E+0	1.461097E+0	1.482444E+0	1.470778E+0	1.448382E+0	1.416804E+0	1.436014E+0	1.381588E+0	1.450511E+0	1.517517E+0	1.444807E+0	1.434812E+0	1.446888E+0	1.410101E+0	1.407096E+0	1.444609E+0	1.431583E+0	1.444037E+0	1.401573E+0	1.467806E+0	1.466157E+0	1.436684E+0	1.452724E+0	1.447197E+0	1.512466E+0	1.454295E+0	1.418555E+0	1.461147E+0	1.421320E+0	1.436670E+0	1.461996E+0	1.443864E+0	1.472757E+0	1.444855E+0	1.453305E+0	1.493089E+0	1.480039E+0	1.393263E+0	1.463217E+0	1.418219E+0	1.524599E+0	1.503195E+0	1.434146E+0	1.461611E+0	1.455377E+0	1.449272E+0	1.586197E+0	1.417671E+0	1.465585E+0	1.441815E+0	1.487026E+0	1.466158E+0	1.466165E+0	1.406243E+0	1.427216E+0	1.455977E+0	1.489826E+0	1.494940E+0	1.411383E+0	1.401962E+0	1.406519E+0	1.458620E+0	1.474112E+0	1.445289E+0	1.458782E+0	1.380106E+0	1.421509E+0	1.406739E+0	1.519016E+0	1.511428E+0	1.470479E+0	1.466750E+0	1.457674E+0	1.487185E+0	1.549862E+0	1.475343E+0	1.426911E+0	1.455922E+0	1.402903E+0	1.444074E+0	1.461852E+0	1.516177E+0	1.456940E+0	1.471384E+0	1.478195E+0	1.432806E+0	1.467735E+0	1.461832E+0	1.503008E+0	1.522176E+0	1.427210E+0	1.398600E+0	1.457402E+0	1.442182E+0	1.481256E+0	1.547518E+0	1.403865E+0	1.537714E+0	1.497631E+0	1.340421E+0	1.495868E+0	1.487651E+0	1.491516E+0	1.466948E+0	1.530585E+0	1.477277E+0	1.388943E+0	1.441349E+0	1.451891E+0	1.444565E+0	1.481776E+0	1.443035E+0	1.444583E+0	1.409506E+0	1.647404E+0
2.851060E+2	1.257666E+0	1.242529E+0	1.274215E+0	1.182746E+0	1.249007E+0	1.273750E+0	1.201589E+0	1.277536E+0	1.234483E+0	1.186556E+0	1.186891E+0	1.247695E+0	1.285610E+0	1.269935E+0	1.157142E+0	1.299778E+0	1.288500E+0	1.241621E+0	1.239764E+0	1.230817E+0	1.268497E+0	1.254122E+0	1.230577E+0	1.214613E+0	1.296293E+0	1.225874E+0	1.258091E+0	1.254560E+0	1.267560E+0	1.222142E+0	1.300628E+0	1.218501E+0	1.196376E+0	1.190775E+0	1.189787E+0	1.212501E+0	1.198023E+0	1.249856E+0	1.230540E+0	1.198283E+0	1.188441E+0	1.217738E+0	1.253931E+0	1.259539E+0	1.280714E+0	1.147159E+0	1.215808E+0	1.200661E+0	1.313791E+0	1.153747E+0	1.258833E+0	1.280669E+0	1.201739E+0	1.213094E+0	1.247593E+0	1.267100E+0	1.248058E+0	1.228622E+0	1.255574E+0	1.299225E+0	1.245401E+0	1.235489E+0	1.182768E+0	1.221310E+0	1.291314E+0	1.267092E+0	1.295068E+0	1.212220E+0	1.213020E+0	1.280419E+0	1.270023E+0	1.256173E+0	1.239686E+0	1.289089E+0	1.218683E+0	1.278627E+0	1.224657E+0	1.233804E+0	1.212916E+0	1.235509E+0	1.331513E+0	1.250897E+0	1.243251E+0	1.245530E+0	1.263432E+0	1.311136E+0	1.254569E+0	1.317401E+0	1.270037E+0	1.291735E+0	1.171852E+0	1.259387E+0	1.284739E+0	1.226241E+0	1.263763E+0	1.236393E+0	1.262167E+0	1.183547E+0	1.251227E+0	1.189951E+0	1.268676E+0	1.254879E+0	1.281971E+0	1.284336E+0	1.274515E+0	1.226360E+0	1.332562E+0	1.239513E+0	1.258281E+0	1.279998E+0	1.270390E+0	1.217566E+0	1.256994E+0	1.236507E+0	1.264251E+0	1.378216E+0	1.269568E+0	1.267402E+0	1.260039E+0	1.272878E+0	1.205004E+0	1.290688E+0	1.254965E+0	1.278309E+0	1.252979E+0	1.285045E+0	1.216031E+0	1.238455E+0	1.214241E+0	1.254805E+0	1.322152E+0	1.220284E+0	1.271928E+0	1.205377E+0	1.287060E+0	1.260883E+0	1.182208E+0	1.294921E+0	1.245058E+0	1.181664E+0	1.256240E+0	1.285916E+0	1.258248E+0	1.270136E+0	1.246437E+0	1.303687E+0	1.257449E+0	1.240235E+0	1.277388E+0	1.303304E+0	1.227249E+0	1.276983E+0	1.249381E+0	1.404612E+0	1.271933E+0	1.245998E+0	1.331209E+0	1.233571E+0	1.205518E+0	1.284782E+0	1.281171E+0	1.273740E+0	1.222434E+0	1.290200E+0	1.278670E+0	1.359501E+0	1.296176E+0	1.217704E+0	1.252996E+0	1.277652E+0	1.281965E+0
2.852010E+2	1.083719E+0	1.085850E+0	1.110304E+0	1.030074E+0	1.073460E+0	1.081583E+0	1.102410E+0	1.109640E+0	1.029670E+0	1.058326E+0	1.080556E+0	1.085856E+0	1.121233E+0	1.110323E+0	1.090673E+0	1.123632E+0	1.046535E+0	1.102981E+0	1.042496E+0	1.069070E+0	1.094541E+0	1.082225E+0	1.103857E+0	1.105470E+0	1.073308E+0	1.045809E+0	1.098310E+0	1.059604E+0	1.065485E+0	1.064873E+0	1.092287E+0	1.077592E+0	1.059795E+0	1.074049E+0	1.051174E+0	1.046432E+0	1.095679E+0	1.114309E+0	1.064603E+0	1.169766E+0	1.050271E+0	1.031975E+0	1.081558E+0	1.143303E+0	1.178739E+0	1.083572E+0	1.020007E+0	1.057327E+0	1.099822E+0	1.110763E+0	1.098858E+0	1.093047E+0	1.047423E+0	1.123025E+0	1.052575E+0	1.123668E+0	1.082660E+0	1.104837E+0	1.089847E+0	1.176892E+0	1.043538E+0	1.116724E+0	1.104298E+0	1.049674E+0	1.088889E+0	1.065952E+0	1.089919E+0	1.082095E+0	1.073348E+0	1.126661E+0	1.027298E+0	1.097183E+0	1.066281E+0	1.095910E+0	1.045777E+0	1.099885E+0	1.113641E+0	1.092803E+0	1.076040E+0	1.059680E+0	1.103693E+0	1.086612E+0	1.068365E+0	1.077585E+0	1.099216E+0	1.129627E+0	1.084234E+0	1.131988E+0	1.109291E+0	1.064878E+0	1.118441E+0	1.092966E+0	1.167748E+0	1.060057E+0	1.062650E+0	1.094243E+0	1.083542E+0	1.136883E+0	1.126715E+0	1.071608E+0	1.096892E+0	1.025037E+0	1.154685E+0	1.052415E+0	1.112254E+0	9.913758E-1	1.047061E+0	1.055083E+0	1.113090E+0	1.085673E+0	1.066164E+0	1.082933E+0	1.104160E+0	1.142772E+0	1.196346E+0	1.080679E+0	1.162953E+0	1.139260E+0	1.075231E+0	1.138358E+0	1.068626E+0	1.107590E+0	1.100326E+0	1.114570E+0	1.072940E+0	1.096815E+0	1.091491E+0	1.131057E+0	1.136164E+0	1.045109E+0	1.191971E+0	1.054304E+0	1.128873E+0	1.150021E+0	1.115843E+0	1.106496E+0	1.066572E+0	1.120534E+0	1.075184E+0	1.062657E+0	1.127130E+0	1.067507E+0	1.106645E+0	1.070135E+0	1.073962E+0	1.036639E+0	1.091955E+0	1.034557E+0	1.126042E+0	1.133603E+0	1.082862E+0	1.123696E+0	1.060549E+0	1.135759E+0	1.079128E+0	1.082332E+0	1.071290E+0	1.124613E+0	1.085758E+0	1.094580E+0	1.157401E+0	1.106215E+0	1.056632E+0	1.086567E+0	1.087822E+0	1.095747E+0	1.075698E+0	1.073780E+0	1.201672E+0	1.210135E+0	1.224078E+0
2.853000E+2	7.964031E-1	8.298754E-1	8.193899E-1	8.101243E-1	8.458465E-1	7.961173E-1	7.991808E-1	7.844527E-1	8.215224E-1	8.175434E-1	7.972677E-1	8.230064E-1	8.108501E-1	8.119815E-1	8.149087E-1	8.617494E-1	7.950567E-1	8.210860E-1	7.884949E-1	8.150170E-1	8.349376E-1	7.791487E-1	8.226786E-1	8.179694E-1	7.687148E-1	8.261132E-1	8.343172E-1	8.332662E-1	8.016695E-1	8.399211E-1	8.385493E-1	8.549899E-1	7.910634E-1	8.629890E-1	8.180445E-1	8.114976E-1	7.837487E-1	8.304334E-1	8.306022E-1	8.584043E-1	8.061962E-1	8.001656E-1	8.313685E-1	8.240110E-1	7.883385E-1	8.293286E-1	8.208025E-1	8.414947E-1	8.520130E-1	8.372814E-1	8.330389E-1	8.428884E-1	8.183662E-1	8.463220E-1	7.622330E-1	7.867505E-1	7.871770E-1	8.430909E-1	8.697842E-1	7.617368E-1	8.638773E-1	8.269737E-1	8.548779E-1	8.511354E-1	8.341752E-1	8.115075E-1	8.257881E-1	8.145897E-1	8.153976E-1	8.110931E-1	8.793111E-1	8.782616E-1	8.415543E-1	8.143630E-1	7.834928E-1	8.969033E-1	8.028693E-1	8.134304E-1	8.149503E-1	8.354890E-1	8.456175E-1	7.825341E-1	8.200790E-1	8.361755E-1	7.894141E-1	8.476094E-1	8.406495E-1	8.245719E-1	8.795791E-1	8.199471E-1	8.170695E-1	8.740404E-1	8.620553E-1	8.050853E-1	8.712781E-1	7.933815E-1	8.070568E-1	8.104521E-1	8.352121E-1	8.539767E-1	7.906504E-1	8.580729E-1	8.509703E-1	8.115361E-1	8.222872E-1	8.092284E-1	8.404664E-1	7.711543E-1	8.485612E-1	8.038123E-1	8.168591E-1	8.640899E-1	8.340000E-1	8.374716E-1	8.577676E-1	8.236614E-1	8.582706E-1	8.215743E-1	8.470178E-1	8.347999E-1	7.656664E-1	7.887246E-1	7.644766E-1	8.417931E-1	8.292617E-1	8.635929E-1	8.504467E-1	8.538156E-1	8.383072E-1	8.267982E-1	8.391851E-1	8.652034E-1	8.287193E-1	8.151858E-1	8.875134E-1	8.608954E-1	8.677374E-1	8.476539E-1	8.344954E-1	8.342686E-1	8.424665E-1	8.393243E-1	7.912963E-1	8.508290E-1	8.164342E-1	8.470982E-1	8.617502E-1	8.082699E-1	8.509961E-1	8.699122E-1	8.810928E-1	7.758420E-1	8.144808E-1	8.130585E-1	8.359433E-1	8.199340E-1	8.037336E-1	7.844587E-1	8.286923E-1	8.221887E-1	8.116621E-1	8.282969E-1	8.194473E-1	8.344613E-1	8.421528E-1	8.265831E-1	8.494197E-1	8.228418E-1	8.724190E-1	8.907660E-1	9.168072E-1
2.854020E+2	6.994747E-1	6.775881E-1	7.055636E-1	6.480143E-1	6.595504E-1	6.722623E-1	6.681139E-1	7.368194E-1	6.487098E-1	6.552904E-1	6.654191E-1	6.919958E-1	6.816319E-1	6.613277E-1	6.571879E-1	6.825675E-1	6.843091E-1	6.679140E-1	6.592192E-1	6.920391E-1	6.917459E-1	6.440117E-1	7.332761E-1	7.033520E-1	7.089087E-1	6.864119E-1	7.147128E-1	7.202624E-1	6.842956E-1	6.953093E-1	6.596391E-1	6.584156E-1	6.884237E-1	7.245096E-1	6.912920E-1	6.686046E-1	6.954224E-1	6.945028E-1	6.764882E-1	6.899992E-1	6.543905E-1	7.093266E-1	6.857907E-1	7.062487E-1	6.534513E-1	7.173492E-1	6.579219E-1	6.674197E-1	6.941456E-1	6.435027E-1	6.839551E-1	7.002037E-1	7.105066E-1	6.755678E-1	6.764304E-1	6.915877E-1	6.320477E-1	6.626650E-1	6.747565E-1	6.977208E-1	6.725944E-1	7.071689E-1	7.167879E-1	7.152413E-1	6.812181E-1	6.380996E-1	7.144714E-1	6.664632E-1	6.359506E-1	6.983142E-1	6.978177E-1	6.396561E-1	6.595833E-1	6.611303E-1	6.882790E-1	6.790149E-1	7.020249E-1	7.020757E-1	6.934926E-1	6.905276E-1	6.571868E-1	6.962719E-1	6.875366E-1	7.118760E-1	6.984963E-1	7.059562E-1	7.286001E-1	6.929646E-1	7.198369E-1	7.265894E-1	7.360621E-1	6.990244E-1	6.827479E-1	6.746372E-1	7.184648E-1	7.377342E-1	6.789297E-1	7.251501E-1	6.793529E-1	7.281184E-1	7.491632E-1	7.284446E-1	7.272950E-1	6.959786E-1	6.425173E-1	6.796041E-1	7.107570E-1	6.870452E-1	7.033427E-1	6.373313E-1	6.713774E-1	6.936775E-1	7.110511E-1	7.032821E-1	7.128501E-1	6.879104E-1	7.296548E-1	7.296900E-1	7.150799E-1	7.009172E-1	6.601438E-1	6.561417E-1	7.119597E-1	6.663203E-1	7.299522E-1	7.234775E-1	6.635210E-1	7.173408E-1	7.231748E-1	6.906672E-1	6.941100E-1	6.754783E-1	6.595861E-1	6.911955E-1	6.863174E-1	6.576244E-1	6.937327E-1	7.018134E-1	7.230066E-1	6.448921E-1	6.421412E-1	7.067597E-1	7.116756E-1	6.764603E-1	6.969078E-1	7.184333E-1	7.079359E-1	6.427234E-1	6.876310E-1	6.771287E-1	7.096791E-1	7.039526E-1	6.982522E-1	7.186676E-1	7.384169E-1	6.911560E-1	7.135378E-1	6.433036E-1	6.442406E-1	7.064508E-1	7.320592E-1	7.215766E-1	6.412819E-1	6.421424E-1	6.731862E-1	6.675511E-1	6.897220E-1	6.778045E-1	6.912796E-1	7.363771E-1	6.945981E-1
2.855050E+2	5.673549E-1	5.730383E-1	5.673056E-1	5.173100E-1	5.537934E-1	5.409949E-1	5.539963E-1	5.642933E-1	5.666549E-1	5.360545E-1	5.529756E-1	5.469894E-1	5.371783E-1	5.354884E-1	5.460154E-1	5.734126E-1	5.960470E-1	5.575516E-1	5.588274E-1	5.233155E-1	5.358823E-1	5.416927E-1	5.670799E-1	5.520690E-1	5.767262E-1	5.825731E-1	5.499192E-1	5.240857E-1	5.585690E-1	5.347242E-1	5.439916E-1	5.368939E-1	5.560839E-1	5.528969E-1	5.489048E-1	5.482737E-1	5.847706E-1	5.459406E-1	5.828291E-1	5.370955E-1	5.618410E-1	5.307722E-1	5.460634E-1	5.622197E-1	6.293290E-1	5.753146E-1	5.730505E-1	5.550379E-1	5.883477E-1	5.770750E-1	5.880090E-1	5.348258E-1	5.516710E-1	5.863703E-1	6.184534E-1	5.555327E-1	5.922567E-1	5.354802E-1	5.503570E-1	5.650775E-1	5.281827E-1	5.700064E-1	5.743612E-1	5.511227E-1	5.603491E-1	5.414925E-1	6.147737E-1	5.611425E-1	5.125127E-1	5.407541E-1	5.617486E-1	5.788908E-1	5.742732E-1	5.698591E-1	5.624144E-1	5.584873E-1	5.693612E-1	5.268281E-1	6.066740E-1	5.927603E-1	5.356177E-1	5.620848E-1	5.287090E-1	5.725454E-1	5.713179E-1	5.540707E-1	5.625715E-1	5.545160E-1	6.045490E-1	5.525883E-1	6.001891E-1	5.701383E-1	5.550201E-1	5.221154E-1	5.764810E-1	5.654189E-1	5.909182E-1	5.679331E-1	5.388115E-1	5.919742E-1	5.362456E-1	5.758649E-1	5.296054E-1	5.550117E-1	5.473658E-1	5.524681E-1	5.791240E-1	5.263457E-1	5.646588E-1	5.556386E-1	5.973522E-1	5.948278E-1	6.014807E-1	6.160080E-1	5.881815E-1	5.936342E-1	5.629981E-1	5.826434E-1	5.952534E-1	5.750704E-1	5.668583E-1	5.600964E-1	5.816496E-1	5.333887E-1	5.633165E-1	5.611994E-1	5.457115E-1	5.908839E-1	5.598876E-1	5.527092E-1	5.493428E-1	5.255593E-1	6.001657E-1	5.328802E-1	5.780547E-1	5.410064E-1	5.542240E-1	5.571146E-1	5.702042E-1	5.812358E-1	5.657732E-1	5.978904E-1	5.661087E-1	5.807390E-1	5.628247E-1	5.544289E-1	5.793087E-1	6.053918E-1	5.692463E-1	6.251828E-1	5.719855E-1	5.339809E-1	5.563837E-1	6.017942E-1	5.816703E-1	5.901346E-1	6.158603E-1	5.337331E-1	6.126094E-1	5.562274E-1	6.049150E-1	5.938490E-1	5.375669E-1	5.106473E-1	5.777520E-1	5.317588E-1	5.763171E-1	5.780399E-1	5.300050E-1	5.778809E-1	5.923081E-1
2.856010E+2	4.406147E-1	4.135670E-1	4.391806E-1	4.461660E-1	4.122405E-1	4.413007E-1	4.257075E-1	4.330157E-1	3.957516E-1	3.880886E-1	4.176897E-1	4.184546E-1	4.225681E-1	4.225377E-1	4.144502E-1	4.118621E-1	4.074987E-1	4.665810E-1	4.366930E-1	4.275037E-1	4.411147E-1	4.057207E-1	4.482291E-1	4.610875E-1	4.472839E-1	4.467996E-1	4.383664E-1	4.674019E-1	4.220310E-1	4.489556E-1	4.498746E-1	4.131521E-1	4.396868E-1	4.916524E-1	4.832233E-1	4.432024E-1	4.432569E-1	4.094549E-1	4.543079E-1	4.354336E-1	4.557456E-1	4.255390E-1	4.279102E-1	4.163501E-1	4.574793E-1	4.152183E-1	4.193404E-1	4.281007E-1	4.569286E-1	4.761475E-1	4.497624E-1	4.334422E-1	4.424852E-1	4.886076E-1	4.303950E-1	4.823993E-1	4.770220E-1	4.042703E-1	4.495762E-1	4.603010E-1	4.336154E-1	4.438585E-1	4.168234E-1	4.758454E-1	4.486906E-1	4.152308E-1	4.345621E-1	4.666620E-1	4.202359E-1	4.421881E-1	4.604399E-1	4.561021E-1	4.261249E-1	4.518970E-1	4.613592E-1	4.386676E-1	4.053369E-1	4.605101E-1	4.657516E-1	4.465087E-1	4.181479E-1	4.060260E-1	4.386718E-1	4.432237E-1	4.300287E-1	4.166021E-1	4.349566E-1	4.115086E-1	4.422297E-1	4.066978E-1	4.412318E-1	4.644409E-1	4.325122E-1	4.865598E-1	4.520099E-1	4.595486E-1	4.577597E-1	4.523107E-1	4.495853E-1	4.185925E-1	4.354056E-1	4.565009E-1	4.687213E-1	4.551311E-1	4.776004E-1	4.638786E-1	4.379375E-1	4.309996E-1	4.508982E-1	4.219195E-1	4.606668E-1	4.243632E-1	4.537336E-1	4.899980E-1	4.785321E-1	4.665010E-1	4.591710E-1	4.309326E-1	4.436445E-1	4.077238E-1	3.962939E-1	4.694156E-1	4.807285E-1	4.873352E-1	4.481701E-1	4.309616E-1	4.358586E-1	4.571777E-1	4.285070E-1	4.567427E-1	4.433844E-1	4.533846E-1	4.338803E-1	4.166602E-1	4.355757E-1	4.683049E-1	4.632196E-1	4.260235E-1	4.131367E-1	4.370207E-1	4.442618E-1	4.446362E-1	4.688072E-1	4.385944E-1	4.588937E-1	4.077485E-1	4.090401E-1	4.569658E-1	4.457818E-1	4.425692E-1	4.271986E-1	4.286108E-1	4.397252E-1	4.796994E-1	4.762883E-1	4.523028E-1	4.120956E-1	4.513601E-1	4.393749E-1	4.549564E-1	4.416585E-1	4.454154E-1	4.188509E-1	4.158997E-1	4.509891E-1	4.451078E-1	5.052339E-1	4.552229E-1	4.376664E-1	4.354994E-1	4.851124E-1
2.858010E+2	4.404766E-1	4.411351E-1	4.306552E-1	4.126055E-1	4.466011E-1	4.591153E-1	4.287561E-1	4.496780E-1	4.127967E-1	4.294340E-1	4.225349E-1	4.552184E-1	4.399048E-1	4.263937E-1	4.419489E-1	4.546771E-1	4.545164E-1	4.565733E-1	4.218785E-1	4.265569E-1	4.398732E-1	4.394543E-1	4.767602E-1	4.827420E-1	4.892198E-1	4.479038E-1	4.511527E-1	4.553052E-1	4.495285E-1	4.895137E-1	4.572743E-1	4.721323E-1	4.368114E-1	4.558354E-1	4.463149E-1	4.466812E-1	4.357118E-1	4.981643E-1	4.737340E-1	4.516146E-1	4.552580E-1	4.920042E-1	4.602660E-1	4.475935E-1	4.546656E-1	4.591505E-1	4.492196E-1	4.433350E-1	4.390938E-1	4.454472E-1	4.657616E-1	4.371416E-1	4.477159E-1	4.546014E-1	4.639686E-1	4.844158E-1	4.606463E-1	4.472692E-1	4.893913E-1	4.765589E-1	4.366235E-1	4.375848E-1	4.914505E-1	4.400098E-1	4.703920E-1	4.658755E-1	4.844226E-1	4.005833E-1	4.439481E-1	4.319965E-1	4.382104E-1	4.035510E-1	4.368671E-1	4.825180E-1	4.442940E-1	4.952971E-1	4.606116E-1	4.704342E-1	4.729969E-1	4.174467E-1	4.435583E-1	3.986807E-1	4.300427E-1	4.674338E-1	4.422411E-1	4.418859E-1	4.651042E-1	4.899749E-1	4.428604E-1	4.453187E-1	4.860363E-1	4.777064E-1	4.778087E-1	4.314164E-1	4.688281E-1	4.233536E-1	4.643771E-1	4.527471E-1	4.494619E-1	4.320125E-1	4.207173E-1	4.551369E-1	4.755582E-1	4.420107E-1	4.565137E-1	4.239106E-1	4.736337E-1	4.420957E-1	4.936169E-1	4.529330E-1	4.250295E-1	4.455765E-1	4.702149E-1	4.560125E-1	4.760481E-1	4.591411E-1	4.440468E-1	4.450531E-1	4.820578E-1	4.716547E-1	4.505349E-1	4.491977E-1	4.874157E-1	4.445561E-1	4.664826E-1	4.665986E-1	4.670738E-1	5.177628E-1	4.520136E-1	4.660094E-1	4.801750E-1	4.509174E-1	4.797832E-1	4.474127E-1	4.593403E-1	4.143480E-1	4.660516E-1	4.601778E-1	4.436749E-1	4.916449E-1	4.534909E-1	4.414331E-1	4.775473E-1	4.676666E-1	4.737435E-1	4.505756E-1	4.659636E-1	4.279120E-1	4.561511E-1	5.291785E-1	4.390057E-1	4.246949E-1	4.328195E-1	4.737127E-1	4.380961E-1	4.406478E-1	4.788176E-1	4.799368E-1	4.528233E-1	4.247273E-1	4.711986E-1	4.452158E-1	4.204517E-1	4.363756E-1	4.535806E-1	4.641614E-1	4.133334E-1	4.823902E-1	4.857235E-1	4.244820E-1	5.425577E-1
2.860050E+2	7.019371E-1	6.906840E-1	7.307948E-1	6.522263E-1	6.835776E-1	6.828272E-1	6.941394E-1	6.900386E-1	6.757194E-1	6.511716E-1	7.121095E-1	7.192190E-1	6.516570E-1	7.027693E-1	6.873094E-1	6.861153E-1	6.753420E-1	7.185039E-1	7.130055E-1	7.023942E-1	7.071577E-1	7.052324E-1	7.353668E-1	7.103694E-1	7.167747E-1	7.415405E-1	7.530486E-1	7.634514E-1	7.071167E-1	7.210171E-1	6.988810E-1	6.886072E-1	7.025275E-1	7.274514E-1	7.544989E-1	7.435446E-1	7.083160E-1	7.202958E-1	7.912585E-1	7.718330E-1	6.780245E-1	7.435639E-1	7.560425E-1	7.175701E-1	6.852527E-1	6.954448E-1	7.492413E-1	6.867841E-1	7.060006E-1	6.997199E-1	7.402941E-1	7.619951E-1	7.054752E-1	7.313645E-1	7.250746E-1	7.265120E-1	7.336095E-1	7.269620E-1	7.462550E-1	7.159274E-1	7.238471E-1	7.212649E-1	7.169459E-1	7.458280E-1	7.467978E-1	6.964781E-1	7.439539E-1	7.159698E-1	7.142571E-1	6.770681E-1	7.082678E-1	7.080594E-1	7.443117E-1	7.275615E-1	7.347073E-1	7.498346E-1	7.291172E-1	7.003188E-1	7.317137E-1	7.421892E-1	7.416748E-1	7.176649E-1	7.105147E-1	6.902605E-1	7.790213E-1	7.329386E-1	7.120984E-1	7.271681E-1	6.858438E-1	6.549641E-1	7.314742E-1	6.678597E-1	7.207416E-1	7.012671E-1	7.381985E-1	7.105583E-1	7.222633E-1	6.790101E-1	7.397850E-1	7.041129E-1	7.076587E-1	7.288497E-1	7.441696E-1	7.179620E-1	7.394613E-1	7.025218E-1	7.398289E-1	6.901699E-1	7.335604E-1	6.462380E-1	7.427239E-1	7.067435E-1	7.427188E-1	7.249575E-1	7.708304E-1	7.355470E-1	7.746510E-1	7.118147E-1	7.113932E-1	7.089621E-1	7.100554E-1	7.322558E-1	6.855474E-1	7.254105E-1	6.897858E-1	7.431908E-1	7.140463E-1	7.057998E-1	7.001277E-1	7.583892E-1	6.949078E-1	7.136160E-1	7.100791E-1	7.173490E-1	7.075227E-1	7.310132E-1	7.021602E-1	6.457869E-1	7.412784E-1	7.294230E-1	7.395510E-1	7.285679E-1	7.071409E-1	6.840196E-1	7.035545E-1	7.128411E-1	6.686722E-1	7.225174E-1	7.360089E-1	6.809825E-1	7.450703E-1	6.733856E-1	7.301921E-1	7.200856E-1	7.491297E-1	6.934288E-1	7.307556E-1	7.123918E-1	6.892689E-1	6.849288E-1	6.934022E-1	7.513239E-1	6.744793E-1	7.023902E-1	7.275579E-1	7.312959E-1	7.248935E-1	7.182220E-1	7.205502E-1	7.095576E-1	7.683895E-1
2.862050E+2	1.248650E+0	1.198527E+0	1.256957E+0	1.235000E+0	1.237546E+0	1.259205E+0	1.233247E+0	1.199825E+0	1.222821E+0	1.162925E+0	1.204932E+0	1.211044E+0	1.245597E+0	1.239706E+0	1.260639E+0	1.196934E+0	1.252830E+0	1.261299E+0	1.253221E+0	1.211242E+0	1.292330E+0	1.180951E+0	1.243485E+0	1.178086E+0	1.219198E+0	1.208824E+0	1.254735E+0	1.238857E+0	1.243822E+0	1.232005E+0	1.231594E+0	1.176842E+0	1.188992E+0	1.264423E+0	1.222321E+0	1.206260E+0	1.250660E+0	1.195731E+0	1.232954E+0	1.268495E+0	1.269089E+0	1.224951E+0	1.296224E+0	1.187776E+0	1.221007E+0	1.229880E+0	1.235054E+0	1.266571E+0	1.247058E+0	1.253309E+0	1.209197E+0	1.195340E+0	1.207492E+0	1.241041E+0	1.321950E+0	1.203806E+0	1.230124E+0	1.219816E+0	1.265676E+0	1.283091E+0	1.176294E+0	1.251444E+0	1.269449E+0	1.286582E+0	1.286217E+0	1.181855E+0	1.264929E+0	1.245754E+0	1.255551E+0	1.213194E+0	1.210296E+0	1.247101E+0	1.258576E+0	1.212624E+0	1.156703E+0	1.244703E+0	1.237529E+0	1.231075E+0	1.246797E+0	1.203126E+0	1.229913E+0	1.170074E+0	1.247383E+0	1.218946E+0	1.239181E+0	1.285540E+0	1.266714E+0	1.267771E+0	1.236669E+0	1.249872E+0	1.276631E+0	1.291640E+0	1.286386E+0	1.233886E+0	1.237922E+0	1.252259E+0	1.301995E+0	1.305785E+0	1.218024E+0	1.243407E+0	1.199686E+0	1.196440E+0	1.184612E+0	1.223153E+0	1.243973E+0	1.254717E+0	1.262733E+0	1.208196E+0	1.256977E+0	1.191598E+0	1.305313E+0	1.244297E+0	1.354720E+0	1.249131E+0	1.326326E+0	1.241209E+0	1.291491E+0	1.181315E+0	1.254366E+0	1.243536E+0	1.208371E+0	1.252633E+0	1.252522E+0	1.272516E+0	1.246634E+0	1.254984E+0	1.262784E+0	1.284044E+0	1.212812E+0	1.257437E+0	1.188004E+0	1.236843E+0	1.224353E+0	1.208804E+0	1.215314E+0	1.211261E+0	1.250782E+0	1.207725E+0	1.283832E+0	1.245838E+0	1.247258E+0	1.224495E+0	1.235256E+0	1.209006E+0	1.267328E+0	1.195409E+0	1.247395E+0	1.316703E+0	1.286973E+0	1.248479E+0	1.292051E+0	1.168878E+0	1.278912E+0	1.294122E+0	1.313537E+0	1.250181E+0	1.208928E+0	1.200288E+0	1.270216E+0	1.245381E+0	1.278063E+0	1.185758E+0	1.185934E+0	1.268800E+0	1.259711E+0	1.187563E+0	1.251191E+0	1.213732E+0	1.243500E+0	1.254134E+0	1.304959E+0
2.864190E+2	1.287767E+0	1.337584E+0	1.265117E+0	1.309173E+0	1.302636E+0	1.346122E+0	1.278627E+0	1.305955E+0	1.299246E+0	1.291830E+0	1.295961E+0	1.325101E+0	1.347683E+0	1.303282E+0	1.287054E+0	1.314716E+0	1.266713E+0	1.293934E+0	1.266181E+0	1.334990E+0	1.315416E+0	1.283883E+0	1.313588E+0	1.340165E+0	1.292893E+0	1.272191E+0	1.374478E+0	1.294499E+0	1.311296E+0	1.380756E+0	1.325607E+0	1.266419E+0	1.279798E+0	1.307597E+0	1.242209E+0	1.254415E+0	1.269986E+0	1.368951E+0	1.321098E+0	1.355611E+0	1.294741E+0	1.305819E+0	1.318254E+0	1.308687E+0	1.378534E+0	1.301018E+0	1.276007E+0	1.289883E+0	1.364280E+0	1.368168E+0	1.348320E+0	1.328301E+0	1.297216E+0	1.273135E+0	1.303389E+0	1.254614E+0	1.256459E+0	1.276878E+0	1.349918E+0	1.340049E+0	1.290628E+0	1.344942E+0	1.295558E+0	1.364533E+0	1.255654E+0	1.354827E+0	1.300147E+0	1.256851E+0	1.364032E+0	1.292294E+0	1.292388E+0	1.383771E+0	1.324377E+0	1.296860E+0	1.374560E+0	1.365167E+0	1.329585E+0	1.219407E+0	1.303165E+0	1.293181E+0	1.256362E+0	1.299734E+0	1.308875E+0	1.320906E+0	1.322083E+0	1.270427E+0	1.365936E+0	1.349682E+0	1.305762E+0	1.285465E+0	1.325080E+0	1.354656E+0	1.360219E+0	1.327654E+0	1.387681E+0	1.344077E+0	1.300174E+0	1.290661E+0	1.309148E+0	1.296099E+0	1.284595E+0	1.333476E+0	1.431062E+0	1.298117E+0	1.321024E+0	1.271720E+0	1.334238E+0	1.281814E+0	1.355692E+0	1.314524E+0	1.285864E+0	1.275131E+0	1.293368E+0	1.294894E+0	1.351111E+0	1.345191E+0	1.326265E+0	1.278944E+0	1.318378E+0	1.283569E+0	1.320393E+0	1.283490E+0	1.344435E+0	1.349781E+0	1.299413E+0	1.316631E+0	1.336258E+0	1.347472E+0	1.318233E+0	1.300856E+0	1.309452E+0	1.366256E+0	1.292402E+0	1.300443E+0	1.325354E+0	1.309859E+0	1.299786E+0	1.399755E+0	1.359150E+0	1.305752E+0	1.352992E+0	1.240060E+0	1.287700E+0	1.299266E+0	1.378585E+0	1.303855E+0	1.323248E+0	1.325673E+0	1.357022E+0	1.288708E+0	1.356224E+0	1.328884E+0	1.365067E+0	1.317440E+0	1.342060E+0	1.258074E+0	1.298777E+0	1.278384E+0	1.283816E+0	1.317832E+0	1.332553E+0	1.306789E+0	1.238215E+0	1.252677E+0	1.343731E+0	1.280857E+0	1.359054E+0	1.284627E+0	1.309009E+0	1.313657E+0	1.450587E+0
2.866180E+2	1.158025E+0	1.196020E+0	1.186580E+0	1.201875E+0	1.179848E+0	1.215472E+0	1.192263E+0	1.233381E+0	1.189859E+0	1.179805E+0	1.155040E+0	1.174204E+0	1.191249E+0	1.205099E+0	1.196751E+0	1.195061E+0	1.167240E+0	1.258174E+0	1.198669E+0	1.223416E+0	1.199489E+0	1.213325E+0	1.282092E+0	1.234186E+0	1.227255E+0	1.225687E+0	1.262204E+0	1.194019E+0	1.212057E+0	1.182537E+0	1.216091E+0	1.194647E+0	1.193203E+0	1.216125E+0	1.206733E+0	1.174966E+0	1.170417E+0	1.246050E+0	1.228188E+0	1.200215E+0	1.151455E+0	1.218581E+0	1.235323E+0	1.219476E+0	1.270728E+0	1.193782E+0	1.231135E+0	1.237452E+0	1.272984E+0	1.195565E+0	1.317448E+0	1.207257E+0	1.245143E+0	1.199539E+0	1.266053E+0	1.203021E+0	1.188614E+0	1.146248E+0	1.227188E+0	1.202971E+0	1.193722E+0	1.228837E+0	1.174072E+0	1.234228E+0	1.318884E+0	1.202098E+0	1.208480E+0	1.188250E+0	1.215851E+0	1.220293E+0	1.334089E+0	1.239063E+0	1.185034E+0	1.165199E+0	1.196666E+0	1.260506E+0	1.180255E+0	1.198187E+0	1.191025E+0	1.232279E+0	1.180765E+0	1.175825E+0	1.218582E+0	1.239461E+0	1.210013E+0	1.258500E+0	1.205376E+0	1.188024E+0	1.225820E+0	1.284896E+0	1.237354E+0	1.234995E+0	1.169719E+0	1.216620E+0	1.223608E+0	1.194319E+0	1.203241E+0	1.202627E+0	1.211438E+0	1.216042E+0	1.214646E+0	1.195136E+0	1.316724E+0	1.147687E+0	1.274543E+0	1.218827E+0	1.213493E+0	1.146131E+0	1.217646E+0	1.240004E+0	1.210215E+0	1.249376E+0	1.254264E+0	1.201913E+0	1.206818E+0	1.197954E+0	1.220183E+0	1.224470E+0	1.230812E+0	1.196699E+0	1.181634E+0	1.195272E+0	1.196579E+0	1.204554E+0	1.245738E+0	1.235209E+0	1.159696E+0	1.154208E+0	1.168291E+0	1.165397E+0	1.259506E+0	1.210424E+0	1.228469E+0	1.164040E+0	1.238359E+0	1.192818E+0	1.206202E+0	1.197147E+0	1.200924E+0	1.231133E+0	1.240404E+0	1.137989E+0	1.196954E+0	1.186114E+0	1.193610E+0	1.214423E+0	1.197603E+0	1.217320E+0	1.244986E+0	1.219615E+0	1.210096E+0	1.179384E+0	1.197066E+0	1.309593E+0	1.266769E+0	1.172272E+0	1.262347E+0	1.189691E+0	1.221579E+0	1.165472E+0	1.200844E+0	1.184791E+0	1.185093E+0	1.160932E+0	1.256913E+0	1.145682E+0	1.184540E+0	1.199005E+0	1.249248E+0	1.245157E+0	1.311945E+0
2.868000E+2	1.357562E+0	1.335409E+0	1.372107E+0	1.288197E+0	1.330703E+0	1.373236E+0	1.365734E+0	1.379398E+0	1.304344E+0	1.344821E+0	1.351565E+0	1.378526E+0	1.349607E+0	1.288811E+0	1.309643E+0	1.331624E+0	1.337689E+0	1.357776E+0	1.331728E+0	1.401261E+0	1.381263E+0	1.318191E+0	1.297501E+0	1.370740E+0	1.331853E+0	1.294304E+0	1.317760E+0	1.387623E+0	1.340123E+0	1.405398E+0	1.332422E+0	1.331089E+0	1.266326E+0	1.400211E+0	1.333804E+0	1.305537E+0	1.301289E+0	1.279846E+0	1.400340E+0	1.389300E+0	1.335620E+0	1.309142E+0	1.372716E+0	1.368773E+0	1.343808E+0	1.281095E+0	1.337921E+0	1.327322E+0	1.378767E+0	1.345597E+0	1.382256E+0	1.333623E+0	1.298520E+0	1.325632E+0	1.401406E+0	1.353563E+0	1.270999E+0	1.331529E+0	1.429926E+0	1.396932E+0	1.363198E+0	1.350983E+0	1.335338E+0	1.353882E+0	1.411338E+0	1.294236E+0	1.418336E+0	1.318910E+0	1.355052E+0	1.329614E+0	1.380283E+0	1.285306E+0	1.336660E+0	1.327687E+0	1.394326E+0	1.355324E+0	1.378221E+0	1.325540E+0	1.389577E+0	1.342094E+0	1.418290E+0	1.282643E+0	1.298660E+0	1.325906E+0	1.369771E+0	1.329418E+0	1.376828E+0	1.352738E+0	1.305308E+0	1.236181E+0	1.375084E+0	1.416206E+0	1.393646E+0	1.360795E+0	1.427325E+0	1.374159E+0	1.356842E+0	1.347242E+0	1.378384E+0	1.350344E+0	1.366303E+0	1.309737E+0	1.348081E+0	1.387700E+0	1.332744E+0	1.347082E+0	1.396144E+0	1.279649E+0	1.348492E+0	1.312485E+0	1.301799E+0	1.339073E+0	1.354684E+0	1.318353E+0	1.411547E+0	1.294444E+0	1.403564E+0	1.401019E+0	1.335198E+0	1.330852E+0	1.351549E+0	1.323082E+0	1.343190E+0	1.334316E+0	1.333635E+0	1.383190E+0	1.327676E+0	1.336523E+0	1.394282E+0	1.374395E+0	1.380151E+0	1.315246E+0	1.319227E+0	1.246699E+0	1.312446E+0	1.338775E+0	1.420414E+0	1.332230E+0	1.404669E+0	1.313522E+0	1.364853E+0	1.290142E+0	1.404997E+0	1.391669E+0	1.333401E+0	1.388568E+0	1.466679E+0	1.316349E+0	1.324322E+0	1.315457E+0	1.425788E+0	1.366692E+0	1.311331E+0	1.404000E+0	1.348082E+0	1.339719E+0	1.321975E+0	1.264460E+0	1.353784E+0	1.345549E+0	1.420210E+0	1.363230E+0	1.348818E+0	1.265865E+0	1.361231E+0	1.334419E+0	1.400334E+0	1.310453E+0	1.349860E+0	1.274281E+0	1.561894E+0
2.870190E+2	1.322670E+0	1.304149E+0	1.334326E+0	1.270516E+0	1.291267E+0	1.290331E+0	1.355360E+0	1.317862E+0	1.286505E+0	1.317025E+0	1.284760E+0	1.343977E+0	1.334841E+0	1.312297E+0	1.278501E+0	1.353059E+0	1.248924E+0	1.364573E+0	1.277491E+0	1.310801E+0	1.313823E+0	1.326241E+0	1.332297E+0	1.249654E+0	1.247595E+0	1.268488E+0	1.301833E+0	1.335718E+0	1.218778E+0	1.287909E+0	1.267512E+0	1.305715E+0	1.294633E+0	1.303196E+0	1.277778E+0	1.241769E+0	1.322871E+0	1.268103E+0	1.260528E+0	1.310579E+0	1.248676E+0	1.272197E+0	1.302304E+0	1.304958E+0	1.309758E+0	1.266969E+0	1.244476E+0	1.217306E+0	1.329807E+0	1.277387E+0	1.342217E+0	1.274560E+0	1.256836E+0	1.281077E+0	1.315990E+0	1.313267E+0	1.294264E+0	1.277024E+0	1.303783E+0	1.266039E+0	1.277602E+0	1.322918E+0	1.257773E+0	1.320536E+0	1.288452E+0	1.246358E+0	1.304992E+0	1.326097E+0	1.258828E+0	1.235566E+0	1.295326E+0	1.359950E+0	1.327039E+0	1.293931E+0	1.260620E+0	1.340509E+0	1.360038E+0	1.279556E+0	1.314444E+0	1.278390E+0	1.267841E+0	1.262465E+0	1.320225E+0	1.234412E+0	1.336001E+0	1.303049E+0	1.326845E+0	1.274206E+0	1.291539E+0	1.296651E+0	1.367419E+0	1.379208E+0	1.355123E+0	1.309881E+0	1.278423E+0	1.286035E+0	1.368426E+0	1.229305E+0	1.290016E+0	1.261552E+0	1.308235E+0	1.256504E+0	1.327908E+0	1.281171E+0	1.338327E+0	1.278737E+0	1.255824E+0	1.259665E+0	1.345994E+0	1.227521E+0	1.304936E+0	1.327217E+0	1.350754E+0	1.305902E+0	1.353415E+0	1.293377E+0	1.330060E+0	1.279952E+0	1.310961E+0	1.244666E+0	1.298172E+0	1.369872E+0	1.304968E+0	1.231902E+0	1.353046E+0	1.335310E+0	1.338459E+0	1.310209E+0	1.322715E+0	1.323406E+0	1.369305E+0	1.306379E+0	1.294971E+0	1.262660E+0	1.329816E+0	1.284441E+0	1.242353E+0	1.344446E+0	1.300800E+0	1.303722E+0	1.288836E+0	1.296631E+0	1.333380E+0	1.244801E+0	1.308143E+0	1.283016E+0	1.333849E+0	1.252491E+0	1.333397E+0	1.317905E+0	1.353591E+0	1.305636E+0	1.291013E+0	1.275882E+0	1.331860E+0	1.349519E+0	1.265121E+0	1.287624E+0	1.312534E+0	1.286130E+0	1.323417E+0	1.335012E+0	1.318246E+0	1.342593E+0	1.303251E+0	1.280075E+0	1.325990E+0	1.335991E+0	1.306444E+0	1.282955E+0	1.411026E+0
2.872120E+2	1.090931E+0	1.123559E+0	1.120501E+0	1.060414E+0	1.092768E+0	1.114570E+0	1.091693E+0	1.127682E+0	1.102146E+0	1.118487E+0	1.110476E+0	1.143394E+0	1.099049E+0	1.090255E+0	1.099823E+0	1.087112E+0	1.071354E+0	1.127587E+0	1.126238E+0	1.094740E+0	1.123716E+0	1.125969E+0	1.117214E+0	1.108580E+0	1.110010E+0	1.081136E+0	1.091346E+0	1.051511E+0	1.137487E+0	1.055935E+0	1.101572E+0	1.054912E+0	1.099238E+0	1.132702E+0	1.085709E+0	1.053552E+0	1.064304E+0	1.084149E+0	1.074715E+0	1.154045E+0	1.028935E+0	1.063461E+0	1.082905E+0	1.111578E+0	1.094215E+0	1.140304E+0	1.140860E+0	1.152660E+0	1.111219E+0	1.138154E+0	1.139542E+0	1.125346E+0	1.112330E+0	1.117878E+0	1.123268E+0	1.127686E+0	1.067137E+0	1.071912E+0	1.094556E+0	1.124384E+0	1.076313E+0	1.123591E+0	1.099082E+0	1.081628E+0	1.092547E+0	1.086500E+0	1.170591E+0	1.100319E+0	1.082753E+0	1.078635E+0	1.079216E+0	1.103214E+0	1.096774E+0	1.111313E+0	1.066785E+0	1.136262E+0	1.111398E+0	1.095552E+0	1.080854E+0	1.066334E+0	1.129671E+0	1.068644E+0	1.089416E+0	1.155981E+0	1.116945E+0	1.150281E+0	1.123774E+0	1.092631E+0	1.106091E+0	1.122004E+0	1.143499E+0	1.083850E+0	1.160917E+0	1.138241E+0	1.058429E+0	1.087048E+0	1.162138E+0	1.164703E+0	1.106167E+0	1.149621E+0	1.117020E+0	1.107889E+0	1.113951E+0	1.053906E+0	1.120921E+0	1.102285E+0	1.172012E+0	1.132434E+0	1.149789E+0	1.072198E+0	1.102046E+0	1.132418E+0	1.124724E+0	1.096352E+0	1.171859E+0	1.080234E+0	1.131429E+0	1.102421E+0	1.166655E+0	1.114421E+0	1.091026E+0	1.089351E+0	1.078066E+0	1.100001E+0	1.153543E+0	1.117997E+0	1.072685E+0	1.130792E+0	1.065297E+0	1.108663E+0	1.138233E+0	1.139331E+0	1.113022E+0	1.089976E+0	1.157381E+0	1.124559E+0	1.088017E+0	1.117286E+0	1.148328E+0	1.167285E+0	1.129439E+0	1.066314E+0	1.130768E+0	1.134076E+0	1.178963E+0	1.105508E+0	1.141554E+0	1.171409E+0	1.100658E+0	1.109949E+0	1.140007E+0	1.094622E+0	1.076533E+0	1.140880E+0	1.124633E+0	1.129101E+0	1.112191E+0	1.134047E+0	1.093597E+0	1.054874E+0	1.205885E+0	1.100640E+0	1.076239E+0	1.097118E+0	1.144793E+0	1.135824E+0	1.136927E+0	1.068166E+0	1.136681E+0	1.092813E+0	1.153333E+0
2.874030E+2	8.165524E-1	8.703666E-1	9.131070E-1	8.552473E-1	8.563746E-1	8.715352E-1	8.334777E-1	8.517229E-1	8.897400E-1	8.056982E-1	8.594449E-1	9.073168E-1	8.834744E-1	8.288125E-1	8.383838E-1	8.692528E-1	8.230023E-1	8.727656E-1	7.980975E-1	8.622788E-1	8.415496E-1	8.588736E-1	8.526722E-1	8.611156E-1	8.093464E-1	8.536822E-1	8.566930E-1	9.039317E-1	8.367818E-1	8.541636E-1	8.966666E-1	8.611814E-1	8.602695E-1	8.490212E-1	7.973416E-1	8.509432E-1	8.482090E-1	8.473768E-1	8.804493E-1	8.266168E-1	8.647419E-1	8.619575E-1	8.855239E-1	8.751677E-1	8.498287E-1	8.364599E-1	8.351628E-1	8.531200E-1	9.055697E-1	8.469671E-1	8.631749E-1	8.374268E-1	8.387691E-1	8.581133E-1	8.572008E-1	8.447621E-1	8.484541E-1	8.173448E-1	8.554820E-1	9.171843E-1	8.372867E-1	8.651648E-1	8.456828E-1	8.526206E-1	8.446700E-1	8.471504E-1	8.369081E-1	8.832657E-1	8.409886E-1	8.365754E-1	8.652295E-1	8.528499E-1	8.258724E-1	8.651414E-1	8.452567E-1	8.876110E-1	8.906454E-1	8.320365E-1	8.593311E-1	8.245095E-1	8.465233E-1	8.128233E-1	8.349358E-1	8.630135E-1	8.720674E-1	8.623667E-1	9.131597E-1	8.292757E-1	8.976935E-1	8.564381E-1	9.229315E-1	9.032533E-1	9.146565E-1	8.545984E-1	8.556424E-1	8.325874E-1	8.284636E-1	8.406625E-1	8.547394E-1	8.896469E-1	8.339179E-1	8.180263E-1	9.093829E-1	8.959049E-1	9.138335E-1	8.298903E-1	8.571094E-1	8.562930E-1	8.789538E-1	8.268428E-1	8.313902E-1	9.013576E-1	9.366273E-1	8.345248E-1	8.737560E-1	8.731994E-1	8.921229E-1	8.582554E-1	8.557872E-1	8.519985E-1	8.122487E-1	8.180352E-1	8.289666E-1	9.003030E-1	8.792266E-1	8.992188E-1	8.994137E-1	8.967242E-1	8.702834E-1	8.537846E-1	8.713704E-1	8.967286E-1	8.497780E-1	8.350193E-1	9.029186E-1	8.630116E-1	8.679807E-1	8.595120E-1	9.030497E-1	8.502467E-1	8.879152E-1	7.823997E-1	8.618691E-1	8.392009E-1	8.938926E-1	8.899222E-1	8.636178E-1	8.781908E-1	9.043722E-1	8.410025E-1	9.230907E-1	8.441275E-1	8.147795E-1	8.662253E-1	9.216542E-1	8.129367E-1	8.776545E-1	8.289914E-1	8.672758E-1	8.251816E-1	8.806974E-1	8.888402E-1	8.587695E-1	8.725594E-1	8.758900E-1	9.077487E-1	8.839018E-1	9.298857E-1	8.128409E-1	7.881378E-1	8.981512E-1
2.876120E+2	7.356106E-1	6.830630E-1	7.193540E-1	6.657065E-1	6.796583E-1	6.909647E-1	6.099450E-1	6.528936E-1	6.231993E-1	5.891970E-1	6.475664E-1	6.863259E-1	6.515916E-1	6.497606E-1	6.072911E-1	6.701871E-1	6.399437E-1	6.799132E-1	6.065389E-1	6.503516E-1	6.513203E-1	6.756298E-1	6.656168E-1	6.854202E-1	6.750550E-1	6.908835E-1	6.583373E-1	6.929648E-1	6.812389E-1	6.583932E-1	6.764352E-1	6.526929E-1	6.821823E-1	6.714145E-1	6.551300E-1	6.389617E-1	6.723398E-1	6.194537E-1	6.408691E-1	6.429503E-1	6.374295E-1	6.518870E-1	6.496734E-1	6.837353E-1	6.931016E-1	6.863813E-1	6.037752E-1	6.595674E-1	6.746452E-1	6.671984E-1	6.814433E-1	7.025553E-1	6.529597E-1	6.568559E-1	6.682006E-1	6.622567E-1	6.497036E-1	6.534568E-1	7.064169E-1	6.278979E-1	6.455761E-1	6.343311E-1	6.689682E-1	6.929123E-1	6.382204E-1	6.520702E-1	6.825652E-1	6.325970E-1	6.946856E-1	6.454251E-1	6.250792E-1	6.817003E-1	6.635485E-1	6.582300E-1	6.820988E-1	7.114391E-1	6.760013E-1	6.638627E-1	6.724249E-1	6.715218E-1	6.893832E-1	6.642459E-1	6.550697E-1	6.765504E-1	6.593216E-1	6.451449E-1	7.029653E-1	6.846595E-1	6.659459E-1	6.558779E-1	6.613199E-1	6.868312E-1	6.954140E-1	6.529274E-1	5.994889E-1	6.684730E-1	6.650782E-1	6.580566E-1	6.075640E-1	6.301569E-1	6.572705E-1	7.051084E-1	7.302101E-1	6.679965E-1	6.728696E-1	6.398389E-1	6.982660E-1	6.084112E-1	6.726166E-1	6.538180E-1	6.775612E-1	6.237253E-1	6.726971E-1	6.493525E-1	6.757456E-1	6.928923E-1	6.930175E-1	6.711032E-1	6.690251E-1	6.380618E-1	6.738731E-1	6.479030E-1	6.051582E-1	6.452043E-1	6.522924E-1	6.965350E-1	6.816214E-1	6.832879E-1	6.964052E-1	6.662141E-1	6.950143E-1	6.397783E-1	6.787451E-1	6.523787E-1	6.960288E-1	6.799412E-1	6.588441E-1	6.419071E-1	6.730272E-1	6.488245E-1	6.783747E-1	6.510316E-1	6.769656E-1	6.205760E-1	6.649962E-1	6.834395E-1	6.951987E-1	6.538650E-1	6.608957E-1	6.191327E-1	6.719704E-1	6.199313E-1	6.242240E-1	7.053358E-1	6.827307E-1	6.500776E-1	6.846035E-1	6.325194E-1	6.853315E-1	6.615917E-1	7.186214E-1	6.750338E-1	6.353381E-1	6.263762E-1	6.580724E-1	6.371493E-1	6.549000E-1	6.575178E-1	6.399819E-1	6.633268E-1	7.428969E-1
2.878030E+2	7.018215E-1	7.106468E-1	7.445987E-1	7.001878E-1	7.378146E-1	7.597627E-1	7.208967E-1	7.551818E-1	7.167360E-1	6.961271E-1	7.036223E-1	7.315743E-1	7.314513E-1	6.745123E-1	6.887663E-1	7.617506E-1	7.055204E-1	7.509023E-1	7.067455E-1	7.232064E-1	6.923796E-1	7.102659E-1	7.246766E-1	7.285194E-1	7.513393E-1	7.525091E-1	7.498235E-1	6.955517E-1	6.836854E-1	7.009573E-1	7.262511E-1	7.399415E-1	7.440998E-1	7.303438E-1	7.455465E-1	7.006726E-1	6.864423E-1	7.074079E-1	7.445842E-1	7.316604E-1	7.429947E-1	7.529852E-1	7.170831E-1	6.889318E-1	7.689931E-1	6.902394E-1	7.193124E-1	7.238917E-1	7.424010E-1	7.327260E-1	7.554896E-1	7.639923E-1	7.333777E-1	6.951810E-1	7.141095E-1	7.467470E-1	7.133323E-1	7.447913E-1	7.332877E-1	7.177589E-1	6.792140E-1	7.296836E-1	7.332490E-1	7.640810E-1	7.210294E-1	7.716232E-1	7.144992E-1	7.028429E-1	6.957793E-1	6.983307E-1	7.160430E-1	7.356722E-1	7.225036E-1	7.070755E-1	6.853601E-1	7.440623E-1	7.316743E-1	7.209854E-1	7.017194E-1	7.371043E-1	7.285981E-1	7.303819E-1	7.130254E-1	7.976485E-1	7.767102E-1	7.336574E-1	7.748189E-1	7.422490E-1	7.334130E-1	7.277696E-1	7.485696E-1	7.281903E-1	7.934768E-1	7.086389E-1	7.507494E-1	7.553247E-1	7.105300E-1	7.012356E-1	7.191805E-1	6.883346E-1	7.654371E-1	7.057372E-1	7.646637E-1	7.310130E-1	7.543107E-1	7.431870E-1	7.057402E-1	7.099635E-1	7.399207E-1	7.207741E-1	7.595368E-1	7.406765E-1	7.704685E-1	7.002280E-1	7.740240E-1	7.512711E-1	7.140133E-1	6.900628E-1	7.344996E-1	7.447068E-1	7.314842E-1	7.126909E-1	7.320940E-1	7.434752E-1	7.045092E-1	7.357083E-1	8.033124E-1	7.261656E-1	7.610362E-1	7.087027E-1	7.206279E-1	7.289723E-1	6.950992E-1	7.535395E-1	7.442129E-1	7.485543E-1	7.305206E-1	7.513841E-1	7.310355E-1	7.219059E-1	7.238385E-1	6.998552E-1	7.826743E-1	7.662570E-1	7.159109E-1	7.668257E-1	7.383978E-1	7.035517E-1	7.462360E-1	7.334968E-1	7.379227E-1	7.033319E-1	7.007100E-1	7.142473E-1	7.361033E-1	7.468330E-1	7.535791E-1	7.235668E-1	7.025690E-1	7.322421E-1	7.710157E-1	7.071109E-1	6.850084E-1	7.848460E-1	7.180199E-1	6.998023E-1	6.856236E-1	7.309920E-1	7.843860E-1	7.453127E-1	6.803095E-1
2.880040E+2	7.841920E-1	7.460933E-1	7.724413E-1	7.818148E-1	7.848514E-1	7.728340E-1	8.142982E-1	7.812447E-1	7.930314E-1	7.207323E-1	7.682149E-1	7.934040E-1	7.500337E-1	7.898436E-1	7.306517E-1	8.013114E-1	7.498178E-1	8.077354E-1	7.490051E-1	7.249355E-1	7.762599E-1	7.659015E-1	7.828316E-1	7.529843E-1	7.713510E-1	7.670069E-1	7.838528E-1	7.787503E-1	8.179596E-1	7.545550E-1	7.869097E-1	7.573286E-1	7.785420E-1	8.305717E-1	7.452159E-1	7.477568E-1	7.542938E-1	7.678499E-1	7.615680E-1	7.830965E-1	7.885257E-1	7.480048E-1	7.848028E-1	7.966392E-1	8.358326E-1	7.253933E-1	7.870217E-1	7.863005E-1	8.317840E-1	7.615727E-1	7.756626E-1	7.783600E-1	7.484008E-1	7.761579E-1	7.706064E-1	7.807143E-1	7.584945E-1	7.376334E-1	8.207606E-1	7.847536E-1	8.054649E-1	7.962421E-1	7.683562E-1	8.370388E-1	8.717018E-1	8.074811E-1	7.789501E-1	7.993345E-1	7.752750E-1	7.504892E-1	7.783719E-1	8.034658E-1	7.974705E-1	7.505789E-1	7.935229E-1	8.233655E-1	7.655962E-1	7.875309E-1	7.908270E-1	8.057641E-1	8.148581E-1	7.517690E-1	7.482865E-1	8.037485E-1	8.035549E-1	8.074082E-1	8.338846E-1	7.372204E-1	7.832487E-1	7.439962E-1	7.905590E-1	7.921418E-1	7.834601E-1	7.599352E-1	7.933008E-1	7.749663E-1	7.895685E-1	7.316060E-1	8.021778E-1	7.860059E-1	7.937539E-1	7.920748E-1	8.266601E-1	7.780495E-1	7.621243E-1	8.094396E-1	8.052404E-1	8.246841E-1	8.205723E-1	7.745828E-1	7.652275E-1	7.847468E-1	7.732776E-1	7.617254E-1	7.984945E-1	8.231488E-1	8.455175E-1	7.338871E-1	7.963413E-1	8.001646E-1	7.781588E-1	7.816903E-1	7.554628E-1	8.005230E-1	7.879065E-1	8.005352E-1	7.654633E-1	8.087640E-1	8.473301E-1	7.832186E-1	7.946133E-1	7.861919E-1	8.050278E-1	7.511880E-1	7.953083E-1	7.791201E-1	8.258400E-1	7.908784E-1	7.635734E-1	8.609673E-1	7.802094E-1	8.061315E-1	7.696627E-1	7.454686E-1	7.708678E-1	8.458394E-1	7.863810E-1	8.110485E-1	7.931990E-1	7.955046E-1	8.118689E-1	7.696984E-1	7.719184E-1	7.800137E-1	7.928034E-1	8.247917E-1	7.901999E-1	7.605462E-1	8.098433E-1	8.002747E-1	8.014507E-1	7.742375E-1	7.456757E-1	7.950992E-1	8.488926E-1	7.969772E-1	8.337159E-1	8.099051E-1	7.856809E-1	7.499524E-1	8.250510E-1
2.882200E+2	7.841716E-1	8.014218E-1	7.973762E-1	7.779404E-1	7.536417E-1	7.750609E-1	7.801078E-1	8.059189E-1	7.353015E-1	8.041057E-1	7.512740E-1	7.893445E-1	7.455623E-1	8.125721E-1	7.676319E-1	7.997811E-1	7.566099E-1	7.985866E-1	7.866537E-1	7.779846E-1	7.628099E-1	7.579208E-1	7.852650E-1	8.465828E-1	7.516633E-1	8.211020E-1	7.786628E-1	8.253254E-1	7.678751E-1	7.890936E-1	7.653660E-1	7.595641E-1	8.190852E-1	7.718614E-1	7.562077E-1	8.093154E-1	7.951935E-1	7.903872E-1	8.093528E-1	7.776488E-1	7.898449E-1	7.797358E-1	7.892298E-1	7.510447E-1	7.970424E-1	7.793166E-1	7.563704E-1	7.965844E-1	8.281401E-1	7.952783E-1	8.294781E-1	7.544162E-1	7.485010E-1	8.139495E-1	7.986964E-1	8.302357E-1	8.001841E-1	7.765882E-1	7.727738E-1	8.255156E-1	7.912431E-1	7.775218E-1	8.014459E-1	8.223679E-1	8.691032E-1	7.844793E-1	8.136735E-1	7.484785E-1	7.909372E-1	8.229991E-1	7.629112E-1	8.006817E-1	8.209814E-1	7.816415E-1	7.467600E-1	8.103912E-1	7.872081E-1	8.174844E-1	8.120284E-1	8.059436E-1	7.628938E-1	7.785521E-1	7.586483E-1	7.583269E-1	7.811262E-1	7.833115E-1	8.351218E-1	7.957916E-1	7.926075E-1	7.903596E-1	8.222827E-1	8.443344E-1	8.044862E-1	7.736776E-1	8.345386E-1	7.439954E-1	8.202674E-1	8.135871E-1	7.787484E-1	7.693866E-1	7.766059E-1	8.024519E-1	8.206526E-1	7.800097E-1	8.337527E-1	7.913388E-1	7.886572E-1	8.024979E-1	8.416248E-1	8.537045E-1	7.723365E-1	7.773178E-1	8.151106E-1	7.627933E-1	8.044809E-1	7.812358E-1	8.335327E-1	7.971530E-1	7.749241E-1	8.117307E-1	7.643798E-1	8.025735E-1	7.587060E-1	7.806509E-1	8.589233E-1	7.981137E-1	8.248101E-1	8.628396E-1	7.809696E-1	7.755777E-1	8.154064E-1	8.075767E-1	7.851569E-1	7.695101E-1	7.944759E-1	7.756425E-1	8.063455E-1	7.899365E-1	7.426857E-1	8.264391E-1	8.316558E-1	7.898131E-1	7.896736E-1	7.565323E-1	8.231215E-1	7.775845E-1	7.533197E-1	7.883864E-1	7.886057E-1	8.002998E-1	8.193235E-1	7.690012E-1	7.138860E-1	8.116822E-1	8.110971E-1	8.146546E-1	8.205141E-1	8.066897E-1	7.973526E-1	8.281755E-1	8.311011E-1	7.868935E-1	7.468486E-1	8.145003E-1	7.710658E-1	7.516374E-1	7.554284E-1	8.051452E-1	8.168655E-1	8.673298E-1	7.814810E-1
2.884090E+2	8.885657E-1	8.774071E-1	9.130770E-1	9.193650E-1	8.526187E-1	8.567917E-1	8.580614E-1	9.044452E-1	8.276296E-1	8.108150E-1	8.179720E-1	8.650391E-1	8.929085E-1	8.471027E-1	8.353075E-1	8.610612E-1	8.482765E-1	9.113050E-1	8.290542E-1	8.318063E-1	8.472311E-1	8.613247E-1	8.502201E-1	9.090369E-1	8.979168E-1	8.875815E-1	8.598931E-1	8.542083E-1	8.231506E-1	8.889690E-1	8.625335E-1	9.061621E-1	8.405522E-1	9.092234E-1	8.849760E-1	8.445167E-1	9.010543E-1	8.884508E-1	8.387938E-1	8.939609E-1	8.185929E-1	8.277975E-1	8.711469E-1	8.816312E-1	9.088560E-1	8.501057E-1	9.261947E-1	8.857381E-1	8.503506E-1	8.912872E-1	8.845505E-1	8.557669E-1	8.639309E-1	8.593627E-1	8.433203E-1	8.979117E-1	9.061021E-1	8.399939E-1	8.844993E-1	8.551061E-1	8.184765E-1	9.366382E-1	8.508230E-1	9.192002E-1	9.097721E-1	8.447792E-1	8.854020E-1	8.282920E-1	8.592934E-1	8.835605E-1	9.003836E-1	8.587210E-1	9.223255E-1	8.435463E-1	8.389049E-1	8.637108E-1	8.862205E-1	8.650281E-1	8.464584E-1	8.588445E-1	9.065112E-1	8.817860E-1	8.838517E-1	8.830862E-1	9.048462E-1	9.036557E-1	8.931916E-1	9.157694E-1	8.847207E-1	8.652056E-1	8.914849E-1	9.071656E-1	9.181587E-1	8.798291E-1	8.718788E-1	9.092538E-1	9.109578E-1	9.170333E-1	8.313614E-1	8.476617E-1	8.750612E-1	8.960103E-1	9.021888E-1	8.654948E-1	9.282498E-1	8.538560E-1	8.034766E-1	8.854025E-1	9.057934E-1	8.403122E-1	8.565436E-1	9.228169E-1	9.426286E-1	8.510251E-1	8.368221E-1	8.772858E-1	8.707063E-1	8.935764E-1	8.538617E-1	9.157419E-1	8.762429E-1	8.586925E-1	8.924979E-1	8.892698E-1	8.534472E-1	8.976544E-1	9.274997E-1	9.044556E-1	9.235659E-1	8.402147E-1	8.762649E-1	8.556823E-1	8.723226E-1	8.854479E-1	8.312192E-1	8.565793E-1	8.507801E-1	8.630386E-1	8.461120E-1	8.530989E-1	8.833843E-1	8.573356E-1	8.393313E-1	8.328848E-1	9.059350E-1	8.866054E-1	8.377838E-1	9.266650E-1	9.223393E-1	8.257589E-1	8.750370E-1	8.796291E-1	8.233095E-1	8.723091E-1	8.547660E-1	9.047614E-1	8.864410E-1	8.645905E-1	8.557468E-1	9.066049E-1	8.975919E-1	8.624038E-1	8.348027E-1	8.420388E-1	8.869133E-1	8.884120E-1	8.378773E-1	9.152980E-1	8.919745E-1	8.650241E-1	8.088201E-1
2.886010E+2	1.142767E+0	1.166384E+0	1.213409E+0	1.120406E+0	1.130537E+0	1.138943E+0	1.111152E+0	1.209522E+0	1.126984E+0	1.091463E+0	1.110242E+0	1.180080E+0	1.110585E+0	1.148480E+0	1.118931E+0	1.176010E+0	1.091093E+0	1.121033E+0	1.158213E+0	1.162397E+0	1.161507E+0	1.133637E+0	1.160126E+0	1.146751E+0	1.154562E+0	1.171765E+0	1.105051E+0	1.142597E+0	1.107219E+0	1.137884E+0	1.169413E+0	1.131655E+0	1.136098E+0	1.165590E+0	1.076090E+0	1.092026E+0	1.097480E+0	1.116640E+0	1.146769E+0	1.145638E+0	1.109567E+0	1.069835E+0	1.112353E+0	1.146225E+0	1.128801E+0	1.117209E+0	1.113765E+0	1.149313E+0	1.148204E+0	1.090157E+0	1.131873E+0	1.218824E+0	1.123674E+0	1.126286E+0	1.125642E+0	1.138599E+0	1.165222E+0	1.130846E+0	1.118810E+0	1.155689E+0	1.095148E+0	1.169834E+0	1.136153E+0	1.201671E+0	1.168177E+0	1.108474E+0	1.157738E+0	1.182877E+0	1.160495E+0	1.121829E+0	1.134847E+0	1.116286E+0	1.209158E+0	1.178951E+0	1.128612E+0	1.235336E+0	1.097489E+0	1.143864E+0	1.139287E+0	1.091866E+0	1.120082E+0	1.088051E+0	1.201148E+0	1.204189E+0	1.194062E+0	1.127478E+0	1.178438E+0	1.123657E+0	1.140635E+0	1.173321E+0	1.122102E+0	1.201308E+0	1.153667E+0	1.131991E+0	1.142480E+0	1.182458E+0	1.121090E+0	1.142197E+0	1.143913E+0	1.127605E+0	1.070657E+0	1.120393E+0	1.156042E+0	1.107415E+0	1.176349E+0	1.161959E+0	1.157685E+0	1.120705E+0	1.149300E+0	1.110106E+0	1.110659E+0	1.124458E+0	1.154174E+0	1.132576E+0	1.145101E+0	1.112501E+0	1.184630E+0	1.114275E+0	1.096575E+0	1.152083E+0	1.132584E+0	1.139683E+0	1.195255E+0	1.158870E+0	1.138263E+0	1.203231E+0	1.161499E+0	1.166092E+0	1.146739E+0	1.118457E+0	1.106110E+0	1.149662E+0	1.141365E+0	1.142715E+0	1.181630E+0	1.124085E+0	1.156832E+0	1.135126E+0	1.125025E+0	1.133347E+0	1.179092E+0	1.117725E+0	1.142305E+0	1.137022E+0	1.123291E+0	1.186831E+0	1.114055E+0	1.142740E+0	1.191941E+0	1.158624E+0	1.122894E+0	1.142995E+0	1.162504E+0	1.144178E+0	1.151597E+0	1.203635E+0	1.228284E+0	1.119565E+0	1.160593E+0	1.097728E+0	1.126081E+0	1.151464E+0	1.070502E+0	1.178513E+0	1.198826E+0	1.128512E+0	1.153380E+0	1.159926E+0	1.225857E+0	1.171821E+0	1.211191E+0
2.888170E+2	1.235411E+0	1.245132E+0	1.252459E+0	1.196783E+0	1.204818E+0	1.258411E+0	1.179572E+0	1.245657E+0	1.196708E+0	1.191224E+0	1.186859E+0	1.282160E+0	1.229895E+0	1.214924E+0	1.260324E+0	1.233648E+0	1.176888E+0	1.188482E+0	1.229925E+0	1.189689E+0	1.216163E+0	1.184623E+0	1.204436E+0	1.258434E+0	1.205369E+0	1.161775E+0	1.149997E+0	1.198510E+0	1.193609E+0	1.196137E+0	1.240625E+0	1.188981E+0	1.201704E+0	1.192665E+0	1.206050E+0	1.140306E+0	1.155148E+0	1.162786E+0	1.188615E+0	1.241504E+0	1.155123E+0	1.192800E+0	1.194482E+0	1.243788E+0	1.198191E+0	1.163282E+0	1.161319E+0	1.184805E+0	1.231064E+0	1.196184E+0	1.187787E+0	1.164193E+0	1.181994E+0	1.251260E+0	1.183454E+0	1.266396E+0	1.218335E+0	1.178977E+0	1.250342E+0	1.233322E+0	1.146771E+0	1.261115E+0	1.168716E+0	1.250719E+0	1.206873E+0	1.182945E+0	1.176114E+0	1.192336E+0	1.137453E+0	1.188415E+0	1.196497E+0	1.160127E+0	1.239349E+0	1.165991E+0	1.169006E+0	1.262846E+0	1.206800E+0	1.166664E+0	1.182329E+0	1.193177E+0	1.172785E+0	1.244689E+0	1.245812E+0	1.259277E+0	1.249131E+0	1.153263E+0	1.262044E+0	1.245205E+0	1.215612E+0	1.204889E+0	1.185798E+0	1.212598E+0	1.255693E+0	1.193189E+0	1.180321E+0	1.210640E+0	1.260762E+0	1.225015E+0	1.160855E+0	1.210418E+0	1.163277E+0	1.192939E+0	1.172568E+0	1.214758E+0	1.274662E+0	1.214434E+0	1.273853E+0	1.238004E+0	1.273174E+0	1.188524E+0	1.206212E+0	1.218726E+0	1.248170E+0	1.211643E+0	1.257870E+0	1.141727E+0	1.259896E+0	1.209850E+0	1.201925E+0	1.165550E+0	1.202567E+0	1.175971E+0	1.164175E+0	1.191152E+0	1.173583E+0	1.193511E+0	1.219653E+0	1.202040E+0	1.190233E+0	1.197262E+0	1.164054E+0	1.229494E+0	1.183534E+0	1.152101E+0	1.250839E+0	1.229718E+0	1.263001E+0	1.241765E+0	1.207264E+0	1.264728E+0	1.228987E+0	1.192778E+0	1.248625E+0	1.212431E+0	1.232341E+0	1.235718E+0	1.141497E+0	1.193578E+0	1.237939E+0	1.208358E+0	1.242422E+0	1.272865E+0	1.185101E+0	1.240871E+0	1.199550E+0	1.241954E+0	1.264634E+0	1.252802E+0	1.218853E+0	1.199106E+0	1.245077E+0	1.187612E+0	1.205657E+0	1.227614E+0	1.243315E+0	1.177335E+0	1.271858E+0	1.316225E+0	1.209092E+0	1.205287E+0	1.224254E+0
2.890140E+2	1.079858E+0	1.085256E+0	1.066668E+0	1.060136E+0	1.051277E+0	1.059987E+0	1.045772E+0	1.060348E+0	1.080792E+0	1.068095E+0	1.084283E+0	1.137731E+0	1.054363E+0	1.062021E+0	1.070449E+0	1.034672E+0	1.055580E+0	1.085702E+0	1.025598E+0	1.062531E+0	1.031122E+0	1.079504E+0	1.031097E+0	1.080344E+0	1.026782E+0	1.005733E+0	1.053096E+0	1.118451E+0	1.047166E+0	1.000113E+0	1.093441E+0	1.015154E+0	9.938536E-1	1.056809E+0	1.020277E+0	1.002829E+0	9.954259E-1	1.066718E+0	1.079259E+0	1.087269E+0	1.056285E+0	1.027671E+0	1.061962E+0	1.032074E+0	1.106523E+0	1.090181E+0	1.002007E+0	1.050343E+0	1.027611E+0	1.059263E+0	1.101121E+0	9.996701E-1	1.063500E+0	1.034519E+0	1.033609E+0	1.070293E+0	1.044296E+0	1.014968E+0	1.099968E+0	1.090076E+0	1.093252E+0	1.054024E+0	1.048807E+0	1.044785E+0	1.056398E+0	1.067177E+0	1.065500E+0	1.014103E+0	1.062412E+0	1.050977E+0	1.051861E+0	1.090602E+0	1.030307E+0	1.040714E+0	1.029264E+0	1.078132E+0	1.100688E+0	1.046115E+0	1.042116E+0	1.071281E+0	1.041643E+0	9.994826E-1	1.093172E+0	1.037929E+0	1.061446E+0	1.037741E+0	1.100829E+0	1.097571E+0	1.050358E+0	1.022490E+0	1.065201E+0	1.048321E+0	1.128536E+0	1.042240E+0	1.085953E+0	1.084924E+0	1.029042E+0	1.067414E+0	1.029756E+0	1.076510E+0	1.053989E+0	1.039208E+0	1.066538E+0	1.028247E+0	1.084455E+0	1.040961E+0	1.092585E+0	9.981284E-1	1.137927E+0	1.013568E+0	1.069114E+0	1.056998E+0	1.052007E+0	1.020232E+0	1.065528E+0	1.058199E+0	1.121755E+0	1.088384E+0	1.054696E+0	1.081623E+0	1.076108E+0	1.049695E+0	1.061412E+0	1.068467E+0	1.066133E+0	1.033369E+0	1.044913E+0	1.089392E+0	1.049374E+0	1.064940E+0	1.056524E+0	1.109967E+0	1.041509E+0	1.127885E+0	1.071939E+0	1.021504E+0	1.051529E+0	1.045216E+0	1.069553E+0	1.030856E+0	1.110580E+0	1.047753E+0	1.106668E+0	1.087878E+0	1.083604E+0	1.094792E+0	1.070817E+0	1.067625E+0	1.087779E+0	1.069977E+0	1.102509E+0	1.012190E+0	1.065256E+0	1.086756E+0	1.082736E+0	1.130088E+0	1.126355E+0	1.026530E+0	1.066654E+0	1.043146E+0	1.092859E+0	1.071836E+0	1.065941E+0	1.056333E+0	1.116342E+0	1.060833E+0	1.108559E+0	1.051586E+0	1.074782E+0	1.039380E+0	1.197607E+0
2.892040E+2	8.496892E-1	8.506395E-1	8.733991E-1	8.346284E-1	8.592362E-1	8.415511E-1	7.704998E-1	8.306807E-1	8.454772E-1	8.000589E-1	8.762418E-1	8.675463E-1	8.789676E-1	8.364546E-1	8.647027E-1	8.853385E-1	7.982559E-1	9.076748E-1	8.681094E-1	8.515918E-1	8.253233E-1	8.569127E-1	8.142194E-1	7.973445E-1	8.918878E-1	8.401282E-1	8.493514E-1	9.153102E-1	8.554188E-1	8.446388E-1	8.942686E-1	8.579957E-1	8.466605E-1	8.625013E-1	8.751557E-1	8.516135E-1	8.264505E-1	8.720215E-1	8.346606E-1	8.588028E-1	8.538531E-1	8.670809E-1	8.354709E-1	8.988993E-1	8.749612E-1	7.733598E-1	8.451549E-1	8.579313E-1	8.685482E-1	8.253127E-1	8.529675E-1	8.369822E-1	8.690088E-1	8.610106E-1	8.715091E-1	9.074020E-1	8.339478E-1	8.460307E-1	8.446711E-1	8.379386E-1	8.216460E-1	9.015709E-1	8.484403E-1	8.265108E-1	8.671974E-1	7.834346E-1	8.494759E-1	8.766114E-1	8.485890E-1	8.457354E-1	8.335957E-1	8.752310E-1	8.652405E-1	8.895961E-1	8.612339E-1	8.039215E-1	8.467705E-1	8.715434E-1	8.484271E-1	8.457860E-1	8.095233E-1	8.352939E-1	8.447717E-1	8.385252E-1	8.369345E-1	8.332175E-1	9.057832E-1	8.262744E-1	8.526147E-1	8.632114E-1	8.824649E-1	8.956722E-1	8.543618E-1	8.283625E-1	8.313037E-1	8.604158E-1	8.683171E-1	8.615100E-1	7.746362E-1	8.607863E-1	8.628273E-1	8.899153E-1	8.539543E-1	8.473269E-1	8.429020E-1	8.083241E-1	8.917576E-1	8.152889E-1	8.543061E-1	8.227051E-1	8.391355E-1	8.709209E-1	8.541570E-1	8.286436E-1	8.196559E-1	9.061615E-1	8.335013E-1	8.571978E-1	8.564459E-1	8.212764E-1	8.691034E-1	8.383749E-1	8.862130E-1	8.684161E-1	8.665396E-1	8.392417E-1	8.375453E-1	8.814149E-1	8.235977E-1	8.478639E-1	8.290621E-1	8.681314E-1	8.099742E-1	8.661639E-1	8.189510E-1	8.482225E-1	8.385113E-1	8.398186E-1	8.325434E-1	8.269957E-1	8.988922E-1	8.304313E-1	8.840614E-1	8.468428E-1	8.296999E-1	9.079045E-1	9.230577E-1	8.181956E-1	8.749340E-1	8.852961E-1	8.652938E-1	8.775645E-1	8.957715E-1	8.350709E-1	8.575218E-1	9.273112E-1	8.531776E-1	7.997041E-1	8.622728E-1	8.511867E-1	9.064023E-1	8.690902E-1	8.630545E-1	8.093072E-1	8.142153E-1	8.746893E-1	8.678156E-1	8.707791E-1	8.685751E-1	8.819069E-1	8.493773E-1
2.894050E+2	8.868547E-1	8.719726E-1	8.512453E-1	8.243255E-1	8.294775E-1	8.912616E-1	8.174622E-1	8.722914E-1	9.055517E-1	8.316658E-1	8.778074E-1	8.603850E-1	8.541722E-1	8.433422E-1	8.603971E-1	8.256494E-1	8.672253E-1	8.676960E-1	8.179457E-1	8.716452E-1	8.559682E-1	8.357416E-1	8.160247E-1	8.334337E-1	8.779901E-1	8.005629E-1	8.890499E-1	9.201720E-1	8.970487E-1	8.448641E-1	8.700045E-1	8.498000E-1	8.741309E-1	8.958516E-1	8.296931E-1	8.243563E-1	7.839294E-1	8.591001E-1	8.842493E-1	8.737001E-1	8.581304E-1	8.640075E-1	8.762763E-1	8.667859E-1	8.868294E-1	8.963692E-1	8.908426E-1	8.818289E-1	8.540445E-1	8.372684E-1	8.800892E-1	8.613602E-1	8.631577E-1	8.329414E-1	9.000286E-1	8.615770E-1	8.427627E-1	8.733457E-1	8.484840E-1	8.140870E-1	8.699930E-1	8.398803E-1	8.657846E-1	8.795121E-1	8.718080E-1	8.188822E-1	8.467647E-1	8.653829E-1	8.603494E-1	8.511476E-1	8.290572E-1	9.015436E-1	8.624075E-1	8.975090E-1	8.509490E-1	8.672502E-1	8.353840E-1	8.637450E-1	8.825478E-1	8.901004E-1	8.471707E-1	8.970931E-1	8.174877E-1	9.436997E-1	8.728012E-1	8.765235E-1	8.614303E-1	8.673185E-1	8.454615E-1	8.948904E-1	9.153922E-1	8.892290E-1	8.765505E-1	8.914638E-1	9.321864E-1	9.048272E-1	8.421560E-1	8.627476E-1	8.294776E-1	8.627855E-1	8.556813E-1	8.785107E-1	8.504614E-1	8.752395E-1	9.144426E-1	8.633515E-1	9.132596E-1	8.755799E-1	8.833518E-1	8.832365E-1	8.602669E-1	9.002640E-1	9.409383E-1	8.891448E-1	8.508638E-1	8.367046E-1	8.853784E-1	8.333207E-1	8.608912E-1	8.957870E-1	8.478012E-1	8.236865E-1	8.473556E-1	8.729984E-1	8.815527E-1	8.968454E-1	8.380369E-1	9.213307E-1	8.896590E-1	8.675702E-1	8.109601E-1	8.290607E-1	8.878343E-1	8.858047E-1	8.625970E-1	8.566303E-1	8.410531E-1	9.256974E-1	8.526794E-1	9.370203E-1	9.348899E-1	8.546934E-1	9.122232E-1	8.266988E-1	8.811661E-1	8.776597E-1	8.958555E-1	8.825351E-1	9.003874E-1	8.917762E-1	8.532941E-1	8.794970E-1	8.377057E-1	8.018267E-1	8.859129E-1	8.855581E-1	8.783280E-1	8.199422E-1	8.708472E-1	8.319383E-1	9.255361E-1	8.991683E-1	8.227496E-1	8.614213E-1	8.696135E-1	8.597249E-1	9.171461E-1	9.146845E-1	8.721423E-1	8.472159E-1	8.468980E-1
2.896080E+2	8.882729E-1	8.948408E-1	9.218777E-1	8.244864E-1	8.835102E-1	8.912643E-1	8.419698E-1	8.954721E-1	9.089963E-1	8.592043E-1	8.982123E-1	9.436832E-1	8.859943E-1	8.430249E-1	9.156072E-1	8.742177E-1	8.399782E-1	8.991235E-1	8.581995E-1	9.120492E-1	9.402327E-1	9.134056E-1	9.303614E-1	9.064559E-1	9.158352E-1	8.905327E-1	8.843598E-1	8.980812E-1	9.113434E-1	9.012508E-1	9.126315E-1	9.027109E-1	8.887897E-1	9.354464E-1	8.974767E-1	9.347211E-1	8.921287E-1	8.708190E-1	8.744979E-1	9.317675E-1	8.529183E-1	8.560547E-1	8.864907E-1	8.978564E-1	9.240788E-1	8.498204E-1	8.995524E-1	8.853542E-1	9.513564E-1	9.189087E-1	9.151428E-1	9.175450E-1	8.669221E-1	9.210995E-1	8.988953E-1	8.893267E-1	9.049897E-1	9.343853E-1	8.912029E-1	9.047820E-1	9.032901E-1	9.212527E-1	9.200643E-1	8.945995E-1	9.088582E-1	9.219503E-1	8.373115E-1	8.020971E-1	8.817722E-1	8.860457E-1	8.607022E-1	8.990104E-1	9.653657E-1	8.728948E-1	9.145644E-1	9.137064E-1	9.018053E-1	8.829513E-1	8.993783E-1	9.265908E-1	9.233593E-1	9.121102E-1	8.892595E-1	9.064791E-1	9.176276E-1	8.654269E-1	9.043603E-1	9.101225E-1	8.635310E-1	8.919647E-1	9.064006E-1	8.822634E-1	9.258802E-1	8.782209E-1	8.795467E-1	8.762037E-1	8.745940E-1	8.896997E-1	9.027095E-1	8.836357E-1	9.100589E-1	8.612326E-1	9.266045E-1	8.860230E-1	9.310610E-1	8.932068E-1	9.125918E-1	9.322939E-1	9.671172E-1	8.775923E-1	8.855263E-1	9.290257E-1	8.939996E-1	9.033429E-1	8.878732E-1	8.926645E-1	1.006097E+0	8.836045E-1	9.105572E-1	9.401647E-1	8.914112E-1	9.359945E-1	8.716999E-1	9.155120E-1	9.038578E-1	9.252862E-1	9.113647E-1	9.585371E-1	9.251893E-1	8.869915E-1	8.970086E-1	9.530187E-1	9.321939E-1	9.241590E-1	8.986040E-1	8.650637E-1	9.389949E-1	8.979795E-1	8.956246E-1	9.160126E-1	9.185014E-1	9.016076E-1	9.760130E-1	8.713965E-1	9.819343E-1	8.911190E-1	8.986073E-1	9.436130E-1	9.154047E-1	9.593915E-1	8.835776E-1	9.034101E-1	8.840324E-1	9.552514E-1	9.037376E-1	8.927499E-1	9.764618E-1	8.581526E-1	9.145592E-1	8.882733E-1	9.643495E-1	9.208892E-1	8.491717E-1	9.120227E-1	9.183968E-1	9.394476E-1	9.045810E-1	9.711060E-1	9.302037E-1	9.001697E-1	9.388483E-1
2.898030E+2	8.520622E-1	8.664302E-1	8.932524E-1	8.317633E-1	8.221324E-1	8.452572E-1	8.412872E-1	8.414005E-1	8.467892E-1	8.353582E-1	8.265544E-1	8.213419E-1	8.925935E-1	8.389700E-1	8.253228E-1	8.323400E-1	8.472010E-1	8.430432E-1	8.121351E-1	8.306998E-1	8.779650E-1	8.359058E-1	8.352073E-1	8.421673E-1	9.100465E-1	8.573083E-1	9.124543E-1	8.890906E-1	8.591778E-1	8.599935E-1	8.829965E-1	8.743035E-1	8.732422E-1	8.289770E-1	8.996462E-1	8.707351E-1	8.276786E-1	8.280777E-1	8.796705E-1	8.689445E-1	8.317071E-1	8.536114E-1	8.745809E-1	8.408803E-1	8.432954E-1	8.291301E-1	8.103687E-1	8.799742E-1	8.160662E-1	8.422929E-1	8.354643E-1	8.683673E-1	8.786523E-1	8.563664E-1	9.103295E-1	8.295387E-1	8.581868E-1	8.519587E-1	8.826292E-1	8.632143E-1	8.687847E-1	9.146224E-1	8.428990E-1	8.333626E-1	8.428570E-1	8.681676E-1	8.642085E-1	7.929536E-1	8.635326E-1	8.668989E-1	8.626583E-1	8.326356E-1	9.111033E-1	8.351744E-1	8.521398E-1	8.968840E-1	9.069714E-1	8.281142E-1	8.943002E-1	8.798140E-1	8.872759E-1	8.843664E-1	8.606148E-1	8.193100E-1	8.483085E-1	8.641007E-1	8.540238E-1	9.085878E-1	8.864745E-1	8.429245E-1	8.645475E-1	8.722575E-1	9.585526E-1	8.631105E-1	8.637538E-1	8.323594E-1	8.811169E-1	9.257917E-1	8.825993E-1	8.625656E-1	8.788026E-1	8.843404E-1	9.012853E-1	8.923238E-1	8.734419E-1	8.234052E-1	8.600121E-1	8.129968E-1	9.037247E-1	8.272395E-1	8.517018E-1	8.518845E-1	8.793382E-1	8.461266E-1	8.888969E-1	7.874232E-1	8.844174E-1	8.437524E-1	8.828600E-1	8.888999E-1	8.546725E-1	8.487190E-1	8.920396E-1	8.370696E-1	8.605435E-1	8.508643E-1	8.836625E-1	8.601836E-1	8.814245E-1	8.536019E-1	8.612490E-1	8.790453E-1	8.987765E-1	8.423803E-1	8.543850E-1	8.421308E-1	8.914431E-1	8.743303E-1	8.551381E-1	8.336113E-1	8.998229E-1	8.815125E-1	8.810156E-1	8.376601E-1	8.689656E-1	9.064010E-1	8.685898E-1	8.076351E-1	9.077042E-1	8.586552E-1	8.244746E-1	8.904028E-1	8.460069E-1	8.816544E-1	8.481911E-1	9.118176E-1	8.599538E-1	8.578046E-1	8.565356E-1	8.986814E-1	8.915595E-1	9.122322E-1	8.436037E-1	8.707010E-1	8.899088E-1	8.434604E-1	8.896874E-1	8.825937E-1	8.826185E-1	9.146130E-1	7.243355E-1
2.900020E+2	8.075921E-1	7.920912E-1	7.466138E-1	7.683923E-1	7.970795E-1	7.873700E-1	7.718473E-1	7.963133E-1	8.228591E-1	7.775340E-1	7.935790E-1	7.669094E-1	8.138281E-1	8.241828E-1	8.332267E-1	7.790138E-1	8.343629E-1	8.114038E-1	7.965898E-1	7.748411E-1	7.467233E-1	7.885173E-1	7.764875E-1	8.020426E-1	7.770783E-1	8.179529E-1	7.928563E-1	7.542009E-1	7.429246E-1	7.209621E-1	8.065998E-1	7.438035E-1	8.038589E-1	8.005253E-1	7.969983E-1	7.583248E-1	7.796240E-1	7.626759E-1	7.861959E-1	8.476538E-1	7.490206E-1	8.295961E-1	7.709534E-1	8.296937E-1	8.458489E-1	8.019943E-1	7.899747E-1	7.630954E-1	7.999355E-1	7.543027E-1	7.592653E-1	7.983328E-1	7.742527E-1	8.164011E-1	7.745728E-1	8.095654E-1	7.780338E-1	7.580431E-1	8.307552E-1	7.813796E-1	7.967541E-1	7.877396E-1	7.899107E-1	7.847986E-1	8.103568E-1	7.731336E-1	8.016860E-1	8.095797E-1	7.908439E-1	7.933808E-1	8.251752E-1	7.401154E-1	7.651933E-1	7.671543E-1	7.376351E-1	7.727843E-1	7.901011E-1	8.136065E-1	7.898830E-1	7.702428E-1	7.627238E-1	7.862119E-1	7.723975E-1	8.157172E-1	7.786773E-1	8.114754E-1	7.883444E-1	7.708022E-1	8.217348E-1	7.737051E-1	8.096268E-1	7.743647E-1	7.864251E-1	7.725146E-1	8.095785E-1	7.777541E-1	8.312661E-1	8.094363E-1	7.069933E-1	7.987736E-1	7.800022E-1	8.259355E-1	7.748014E-1	7.800218E-1	7.787921E-1	7.906551E-1	7.800739E-1	7.313070E-1	8.218007E-1	7.832476E-1	7.884089E-1	7.797303E-1	7.999090E-1	7.661122E-1	8.382747E-1	7.919381E-1	7.782236E-1	7.454687E-1	7.579953E-1	7.835267E-1	7.707822E-1	7.987186E-1	7.872204E-1	8.304101E-1	8.209822E-1	8.037289E-1	7.522852E-1	8.416595E-1	8.490549E-1	7.733542E-1	8.144116E-1	7.522042E-1	8.111431E-1	7.656892E-1	7.739849E-1	7.730391E-1	7.924704E-1	7.881243E-1	7.881543E-1	8.027079E-1	8.050589E-1	8.085890E-1	8.052568E-1	7.307926E-1	7.950190E-1	8.336993E-1	7.689621E-1	8.055026E-1	8.167899E-1	8.315470E-1	8.434864E-1	8.594750E-1	7.903790E-1	7.956246E-1	7.934115E-1	8.041044E-1	8.308163E-1	7.662836E-1	8.087900E-1	8.524117E-1	8.237926E-1	7.923205E-1	7.549821E-1	7.767880E-1	7.927282E-1	7.999167E-1	8.134903E-1	7.882342E-1	8.201771E-1	8.174455E-1	8.981499E-1
2.905120E+2	7.515355E-1	7.906527E-1	8.408125E-1	8.425479E-1	7.972237E-1	7.517437E-1	7.867275E-1	8.020695E-1	7.855029E-1	7.852176E-1	8.288300E-1	8.094321E-1	8.371295E-1	8.190589E-1	8.011111E-1	7.897879E-1	7.985005E-1	8.674591E-1	7.928467E-1	7.524789E-1	8.064646E-1	8.066386E-1	8.101667E-1	8.247829E-1	7.972224E-1	8.076236E-1	7.624409E-1	8.130024E-1	8.417786E-1	7.945425E-1	8.430207E-1	8.159417E-1	8.379169E-1	8.182685E-1	7.871229E-1	7.679469E-1	7.913328E-1	7.713309E-1	8.567663E-1	8.231967E-1	7.963785E-1	7.848743E-1	8.015137E-1	8.172622E-1	8.267073E-1	8.309368E-1	8.232010E-1	8.438513E-1	7.985952E-1	7.573933E-1	8.040605E-1	7.875854E-1	8.097768E-1	8.069888E-1	7.952195E-1	8.223728E-1	8.161278E-1	7.448501E-1	8.226073E-1	7.727671E-1	8.526908E-1	8.095132E-1	8.211760E-1	7.935364E-1	7.580131E-1	7.910362E-1	9.023401E-1	7.699139E-1	8.455289E-1	7.722350E-1	7.638792E-1	8.354227E-1	8.275681E-1	8.052393E-1	7.934561E-1	8.309882E-1	8.262057E-1	7.997318E-1	8.016062E-1	8.210199E-1	8.172781E-1	8.395505E-1	7.411489E-1	8.482704E-1	8.404738E-1	8.133885E-1	8.001764E-1	8.092770E-1	8.275023E-1	8.134657E-1	8.362359E-1	8.331959E-1	8.413593E-1	7.673471E-1	8.123259E-1	8.220653E-1	8.339077E-1	8.088880E-1	7.932312E-1	7.801331E-1	7.851619E-1	8.088559E-1	8.138278E-1	8.437484E-1	7.898776E-1	8.544434E-1	8.259620E-1	7.773224E-1	8.431977E-1	8.209623E-1	8.511601E-1	8.422352E-1	8.219813E-1	8.107280E-1	8.152194E-1	7.904358E-1	8.481184E-1	8.048753E-1	7.995512E-1	7.996588E-1	8.005822E-1	8.309393E-1	7.910870E-1	7.968114E-1	8.059347E-1	7.740318E-1	8.413406E-1	8.415194E-1	8.663827E-1	8.033505E-1	8.162797E-1	8.149106E-1	7.943998E-1	8.132241E-1	8.127143E-1	7.917076E-1	8.293454E-1	7.930923E-1	8.390002E-1	8.040433E-1	8.341141E-1	7.656950E-1	8.148448E-1	7.859512E-1	8.284086E-1	7.954085E-1	8.344470E-1	8.233346E-1	8.526051E-1	7.855183E-1	8.484792E-1	7.924696E-1	8.497513E-1	7.952791E-1	8.029562E-1	7.997515E-1	8.528652E-1	7.336410E-1	7.664005E-1	8.057122E-1	8.332652E-1	8.477602E-1	8.366082E-1	8.136282E-1	8.232012E-1	8.350579E-1	8.240375E-1	8.854313E-1	8.195217E-1	7.848794E-1	9.118569E-1
2.910040E+2	1.028458E+0	9.850816E-1	1.045397E+0	1.023091E+0	9.748913E-1	1.004080E+0	9.193615E-1	9.712391E-1	1.011833E+0	9.913543E-1	9.864124E-1	9.437468E-1	1.014734E+0	9.857053E-1	9.495416E-1	9.579201E-1	9.411644E-1	9.236877E-1	1.025339E+0	1.036786E+0	9.547939E-1	9.573696E-1	1.013046E+0	1.012510E+0	9.507864E-1	9.857966E-1	9.807041E-1	1.001958E+0	9.705735E-1	9.895088E-1	1.004772E+0	9.662307E-1	9.664592E-1	9.952197E-1	1.025189E+0	9.510720E-1	9.644521E-1	1.013532E+0	9.793361E-1	9.751378E-1	9.943960E-1	9.915266E-1	1.026979E+0	1.020987E+0	9.442645E-1	1.001504E+0	9.840884E-1	9.953793E-1	1.028000E+0	9.542485E-1	1.020117E+0	1.037455E+0	9.615443E-1	9.534296E-1	9.980945E-1	9.856011E-1	9.888491E-1	9.691069E-1	1.036180E+0	9.390837E-1	9.862436E-1	1.021442E+0	9.863976E-1	9.954399E-1	9.615703E-1	9.663954E-1	9.848002E-1	9.710610E-1	9.552004E-1	1.028471E+0	9.871213E-1	1.023586E+0	1.006349E+0	9.899449E-1	1.030114E+0	1.002615E+0	1.013003E+0	9.518608E-1	9.702151E-1	1.027484E+0	9.979529E-1	9.613703E-1	1.026347E+0	9.898549E-1	1.038231E+0	1.012119E+0	9.868570E-1	9.339242E-1	9.799850E-1	9.844601E-1	1.009841E+0	9.961630E-1	1.077855E+0	1.007150E+0	9.971480E-1	9.811649E-1	9.762189E-1	9.836771E-1	9.671270E-1	9.632394E-1	9.659381E-1	9.521529E-1	9.776470E-1	1.006215E+0	9.991596E-1	9.562712E-1	1.020292E+0	9.656766E-1	1.040786E+0	9.913437E-1	9.776739E-1	1.002588E+0	9.998333E-1	9.972323E-1	1.019803E+0	9.884134E-1	1.027747E+0	9.875659E-1	9.414473E-1	9.749350E-1	9.787462E-1	9.105893E-1	1.020917E+0	1.024099E+0	9.752636E-1	9.452978E-1	1.024183E+0	1.056692E+0	9.690223E-1	9.923729E-1	1.014118E+0	1.007781E+0	1.027758E+0	9.518527E-1	1.018229E+0	1.003761E+0	9.418561E-1	1.030922E+0	1.023290E+0	9.620677E-1	1.014814E+0	1.017011E+0	9.354350E-1	9.955036E-1	9.883917E-1	9.568725E-1	1.015990E+0	9.535994E-1	9.391850E-1	1.018560E+0	9.995197E-1	9.366496E-1	9.852497E-1	9.551872E-1	9.854240E-1	9.784054E-1	1.086286E+0	9.877170E-1	9.929844E-1	9.760144E-1	1.002910E+0	9.735785E-1	9.703938E-1	9.656653E-1	1.006482E+0	9.706407E-1	9.925243E-1	9.570808E-1	9.376449E-1	1.006784E+0	1.006023E+0
2.915240E+2	1.160409E+0	1.132281E+0	1.158564E+0	1.100962E+0	1.135395E+0	1.122767E+0	1.136773E+0	1.138667E+0	1.108453E+0	1.116331E+0	1.189256E+0	1.207441E+0	1.065164E+0	1.167560E+0	1.118778E+0	1.161694E+0	1.115331E+0	1.118567E+0	1.099513E+0	1.112610E+0	1.122327E+0	1.069573E+0	1.102630E+0	1.178182E+0	1.141830E+0	1.147685E+0	1.166839E+0	1.073076E+0	1.167382E+0	1.074945E+0	1.112040E+0	1.077766E+0	1.116349E+0	1.113906E+0	1.092693E+0	1.109696E+0	1.094324E+0	1.154458E+0	1.136589E+0	1.134143E+0	1.108112E+0	1.117828E+0	1.132595E+0	1.130930E+0	1.197354E+0	1.124366E+0	1.092839E+0	1.123345E+0	1.144826E+0	1.152842E+0	1.113140E+0	1.140945E+0	1.171993E+0	1.103659E+0	1.100622E+0	1.119812E+0	1.129600E+0	1.079909E+0	1.110631E+0	1.135100E+0	1.089853E+0	1.107872E+0	1.096832E+0	1.175279E+0	1.102186E+0	1.131431E+0	1.183657E+0	1.148561E+0	1.163894E+0	1.109793E+0	1.150155E+0	1.125451E+0	1.152753E+0	1.126414E+0	1.142680E+0	1.145698E+0	1.201709E+0	1.125239E+0	1.086129E+0	1.145636E+0	1.135761E+0	1.100429E+0	1.113169E+0	1.185695E+0	1.162803E+0	1.079610E+0	1.152884E+0	1.135870E+0	1.163688E+0	1.152241E+0	1.114379E+0	1.101172E+0	1.148560E+0	1.179972E+0	1.174863E+0	1.101955E+0	1.132798E+0	1.147334E+0	1.196450E+0	1.133449E+0	1.116049E+0	1.149580E+0	1.119842E+0	1.144795E+0	1.088659E+0	1.147360E+0	1.107104E+0	1.121268E+0	1.195515E+0	1.075936E+0	1.166487E+0	1.152996E+0	1.164624E+0	1.137028E+0	1.147670E+0	1.083230E+0	1.157362E+0	1.088770E+0	1.125507E+0	1.168952E+0	1.182036E+0	1.056827E+0	1.115818E+0	1.111047E+0	1.137544E+0	1.170450E+0	1.153728E+0	1.112424E+0	1.179838E+0	1.109243E+0	1.152855E+0	1.081479E+0	1.137981E+0	1.122754E+0	1.092483E+0	1.097908E+0	1.176319E+0	1.122613E+0	1.124160E+0	1.156318E+0	1.190338E+0	1.153209E+0	1.109237E+0	1.112825E+0	1.126293E+0	1.151635E+0	1.083310E+0	1.127794E+0	1.182523E+0	1.112222E+0	1.173398E+0	1.109226E+0	1.116883E+0	1.151898E+0	1.171807E+0	1.128522E+0	1.159468E+0	1.088917E+0	1.156473E+0	1.109146E+0	1.105893E+0	1.081146E+0	1.062704E+0	1.091634E+0	1.130050E+0	1.140295E+0	1.203589E+0	1.128402E+0	1.123904E+0	1.116754E+0	1.063061E+0
2.920030E+2	1.010743E+0	9.776188E-1	1.087117E+0	1.005457E+0	1.015824E+0	9.994279E-1	1.002408E+0	9.718719E-1	1.029328E+0	9.109013E-1	1.020977E+0	1.001232E+0	1.032958E+0	1.004581E+0	9.847691E-1	1.020748E+0	9.281644E-1	9.741534E-1	9.768770E-1	9.977489E-1	9.930314E-1	9.496953E-1	1.009840E+0	9.814147E-1	1.041559E+0	9.227578E-1	9.730069E-1	9.528300E-1	9.483273E-1	1.026099E+0	9.588235E-1	1.007694E+0	9.662201E-1	1.004163E+0	1.055231E+0	9.247778E-1	9.671961E-1	1.025982E+0	9.546902E-1	9.975719E-1	9.868231E-1	9.436041E-1	9.483761E-1	1.002275E+0	1.015423E+0	9.856744E-1	9.693074E-1	9.787281E-1	1.002412E+0	9.620337E-1	9.759694E-1	1.016257E+0	9.719920E-1	9.637754E-1	9.702173E-1	1.051796E+0	9.855435E-1	9.609062E-1	1.067451E+0	9.593937E-1	1.013154E+0	1.011621E+0	9.508536E-1	9.969179E-1	1.004195E+0	9.981722E-1	1.020405E+0	1.018732E+0	9.788267E-1	1.026014E+0	9.578426E-1	9.688631E-1	1.011697E+0	1.003834E+0	9.917687E-1	9.809198E-1	9.726188E-1	1.075402E+0	9.879895E-1	9.582076E-1	9.497126E-1	9.899804E-1	9.981717E-1	1.062229E+0	1.008825E+0	9.924024E-1	1.016266E+0	1.027717E+0	9.764912E-1	1.042488E+0	9.596127E-1	9.934535E-1	1.024897E+0	1.007795E+0	1.013726E+0	9.930184E-1	1.035910E+0	9.929284E-1	9.562223E-1	9.173320E-1	9.391890E-1	9.284007E-1	1.034131E+0	9.893577E-1	1.002065E+0	1.042307E+0	9.852660E-1	9.348625E-1	1.049624E+0	9.703648E-1	1.101805E+0	9.511851E-1	1.023367E+0	1.033380E+0	9.955175E-1	1.048423E+0	1.057577E+0	9.607884E-1	9.549927E-1	1.022357E+0	1.003459E+0	9.678228E-1	9.692760E-1	9.559789E-1	1.002190E+0	9.973844E-1	1.041370E+0	9.554115E-1	1.035040E+0	1.008428E+0	1.005374E+0	1.042020E+0	9.945558E-1	9.066436E-1	9.747140E-1	9.828070E-1	1.013149E+0	9.945939E-1	9.479480E-1	9.265120E-1	1.035180E+0	9.287032E-1	9.977946E-1	9.692176E-1	9.895928E-1	9.976957E-1	9.765034E-1	9.825951E-1	1.030605E+0	9.647237E-1	1.013646E+0	1.016842E+0	9.806516E-1	1.038870E+0	9.964969E-1	9.826306E-1	9.977995E-1	9.747938E-1	9.556166E-1	9.412317E-1	9.923579E-1	1.081493E+0	9.857010E-1	9.717100E-1	9.690587E-1	1.026465E+0	9.891990E-1	1.039675E+0	1.011621E+0	9.709444E-1	1.095933E+0
2.925000E+2	9.907391E-1	9.543731E-1	9.882268E-1	9.276003E-1	1.003052E+0	9.863168E-1	9.442958E-1	9.639742E-1	9.619974E-1	9.559456E-1	9.905686E-1	1.022700E+0	9.935299E-1	9.825282E-1	9.119506E-1	1.050464E+0	9.616503E-1	1.009289E+0	9.532532E-1	9.160189E-1	9.819745E-1	9.476617E-1	1.008134E+0	9.905052E-1	9.638890E-1	9.699453E-1	9.673332E-1	9.443758E-1	9.459584E-1	9.739995E-1	9.837561E-1	9.545772E-1	9.704898E-1	1.010713E+0	9.875047E-1	9.161827E-1	9.195868E-1	9.896520E-1	9.679833E-1	9.883377E-1	9.613032E-1	9.541965E-1	9.408094E-1	1.010080E+0	9.794640E-1	9.329885E-1	9.476434E-1	9.922124E-1	9.939441E-1	1.017846E+0	9.496320E-1	9.556382E-1	9.592010E-1	1.012071E+0	9.771196E-1	9.609714E-1	9.717732E-1	9.540000E-1	9.952195E-1	9.413155E-1	9.969889E-1	9.750573E-1	9.965947E-1	9.857109E-1	9.710189E-1	9.938029E-1	1.063515E+0	1.011509E+0	9.542025E-1	9.529415E-1	9.812033E-1	9.443552E-1	1.017605E+0	9.533924E-1	9.601619E-1	1.007164E+0	9.695536E-1	9.997759E-1	9.295039E-1	9.787885E-1	9.695321E-1	9.738025E-1	9.575042E-1	9.444097E-1	9.941596E-1	9.862584E-1	1.013417E+0	9.750581E-1	1.028207E+0	9.397377E-1	1.017218E+0	9.794901E-1	9.995768E-1	9.669287E-1	9.853895E-1	9.825820E-1	1.020181E+0	9.700969E-1	9.385542E-1	1.021915E+0	9.638416E-1	9.722524E-1	9.734628E-1	9.632085E-1	9.866118E-1	1.028151E+0	9.763342E-1	9.579365E-1	9.960158E-1	9.682694E-1	1.002887E+0	9.727277E-1	1.024276E+0	9.624727E-1	1.020942E+0	9.836460E-1	1.004921E+0	9.126465E-1	9.594711E-1	9.475638E-1	9.934149E-1	1.025392E+0	9.453638E-1	1.005167E+0	9.402686E-1	9.328971E-1	9.990138E-1	9.992030E-1	9.602688E-1	9.497941E-1	1.037182E+0	9.997694E-1	1.006185E+0	9.409539E-1	1.026899E+0	9.575341E-1	1.059309E+0	9.123237E-1	9.926007E-1	9.961878E-1	1.032806E+0	9.483725E-1	1.005101E+0	9.565232E-1	1.017167E+0	9.869917E-1	9.955529E-1	9.453608E-1	1.004754E+0	9.986237E-1	9.734199E-1	1.006720E+0	1.026722E+0	1.012441E+0	9.965558E-1	9.866369E-1	1.063762E+0	9.705447E-1	9.709779E-1	9.715480E-1	1.030432E+0	1.026918E+0	9.565377E-1	1.010179E+0	1.041293E+0	9.674790E-1	1.012304E+0	9.791718E-1	9.848237E-1	1.082519E+0	1.008476E+0
2.930040E+2	1.107255E+0	1.093077E+0	1.064322E+0	1.034346E+0	1.124702E+0	1.070921E+0	1.070971E+0	1.057204E+0	1.048111E+0	1.042716E+0	1.039110E+0	1.079224E+0	1.111232E+0	1.038380E+0	1.035467E+0	1.094746E+0	1.113156E+0	1.141919E+0	1.055998E+0	1.095108E+0	1.131613E+0	1.065683E+0	1.096175E+0	1.097700E+0	1.085157E+0	1.039094E+0	1.056638E+0	1.038032E+0	1.027520E+0	1.064086E+0	1.093464E+0	1.071786E+0	1.103407E+0	1.126798E+0	1.068445E+0	1.033291E+0	1.016967E+0	1.100641E+0	1.094641E+0	1.079278E+0	1.077920E+0	1.065712E+0	1.071939E+0	1.050645E+0	1.128769E+0	1.006549E+0	1.056399E+0	1.132249E+0	1.145261E+0	1.081844E+0	1.084921E+0	1.103493E+0	1.025633E+0	1.076424E+0	1.130747E+0	1.085033E+0	1.122952E+0	1.084036E+0	1.041595E+0	1.049069E+0	1.103395E+0	1.050515E+0	1.095372E+0	1.071772E+0	1.075065E+0	1.030881E+0	1.056772E+0	1.049875E+0	1.098164E+0	1.076118E+0	1.026553E+0	1.076406E+0	1.080709E+0	1.047887E+0	1.044864E+0	1.093587E+0	1.088638E+0	1.117234E+0	1.112390E+0	1.042768E+0	1.045991E+0	1.066350E+0	1.033688E+0	1.048787E+0	1.100699E+0	1.042006E+0	1.069086E+0	1.082924E+0	1.088197E+0	1.059542E+0	1.071930E+0	1.079339E+0	1.067586E+0	1.065077E+0	1.034843E+0	1.082831E+0	1.110929E+0	1.098664E+0	1.065203E+0	1.073182E+0	1.071150E+0	1.006701E+0	1.080238E+0	1.069200E+0	1.090626E+0	1.097035E+0	1.080860E+0	1.079176E+0	1.060547E+0	1.056899E+0	1.103593E+0	1.088390E+0	1.094007E+0	1.083243E+0	1.009004E+0	1.162121E+0	1.095181E+0	1.066542E+0	1.096801E+0	1.023585E+0	1.045782E+0	1.031508E+0	1.088052E+0	1.089064E+0	1.102758E+0	1.101936E+0	1.077945E+0	1.121020E+0	1.069726E+0	1.084225E+0	1.011542E+0	1.129492E+0	1.094956E+0	1.070138E+0	1.063028E+0	1.010846E+0	1.143062E+0	1.138150E+0	1.052942E+0	1.119010E+0	1.132589E+0	1.016500E+0	1.116831E+0	1.045126E+0	1.065883E+0	1.052396E+0	1.075637E+0	1.047554E+0	1.029561E+0	1.098490E+0	1.012287E+0	1.041675E+0	1.142619E+0	1.033047E+0	1.062468E+0	1.100770E+0	1.126094E+0	1.046038E+0	1.082107E+0	1.103779E+0	1.098029E+0	1.081027E+0	1.061360E+0	1.134574E+0	1.061066E+0	1.058353E+0	1.095754E+0	1.098505E+0	1.107524E+0	1.069243E+0	1.168836E+0
2.935120E+2	1.151121E+0	1.174890E+0	1.167589E+0	1.158840E+0	1.187021E+0	1.121540E+0	1.130659E+0	1.164523E+0	1.194635E+0	1.098808E+0	1.116990E+0	1.115958E+0	1.103388E+0	1.152620E+0	1.108561E+0	1.152791E+0	1.102482E+0	1.169370E+0	1.201549E+0	1.149147E+0	1.204248E+0	1.171427E+0	1.153564E+0	1.116525E+0	1.123886E+0	1.112228E+0	1.202141E+0	1.119097E+0	1.190643E+0	1.143952E+0	1.203841E+0	1.140602E+0	1.138702E+0	1.138160E+0	1.119679E+0	1.098315E+0	1.146548E+0	1.123200E+0	1.085659E+0	1.140444E+0	1.119101E+0	1.161179E+0	1.098913E+0	1.170710E+0	1.211327E+0	1.088087E+0	1.111932E+0	1.197498E+0	1.211705E+0	1.135994E+0	1.153038E+0	1.124810E+0	1.102675E+0	1.202484E+0	1.112698E+0	1.148515E+0	1.147034E+0	1.137041E+0	1.148932E+0	1.155978E+0	1.102873E+0	1.174254E+0	1.135396E+0	1.129548E+0	1.171009E+0	1.124939E+0	1.177856E+0	1.038092E+0	1.165502E+0	1.138131E+0	1.141406E+0	1.137123E+0	1.157360E+0	1.132050E+0	1.106963E+0	1.177397E+0	1.180726E+0	1.158525E+0	1.158912E+0	1.149749E+0	1.164527E+0	1.118975E+0	1.120069E+0	1.133725E+0	1.167166E+0	1.163864E+0	1.163924E+0	1.138372E+0	1.161129E+0	1.130368E+0	1.177681E+0	1.167789E+0	1.205114E+0	1.136891E+0	1.166406E+0	1.163288E+0	1.147942E+0	1.093434E+0	1.131035E+0	1.145648E+0	1.124355E+0	1.167988E+0	1.150337E+0	1.121300E+0	1.122150E+0	1.079125E+0	1.146087E+0	1.131866E+0	1.151722E+0	1.148257E+0	1.207598E+0	1.176990E+0	1.217996E+0	1.077526E+0	1.174384E+0	1.184386E+0	1.165051E+0	1.118974E+0	1.109320E+0	1.139553E+0	1.142541E+0	1.075771E+0	1.078767E+0	1.142318E+0	1.153051E+0	1.105578E+0	1.123889E+0	1.128379E+0	1.185927E+0	1.116905E+0	1.173296E+0	1.189759E+0	1.137881E+0	1.130873E+0	1.121193E+0	1.164462E+0	1.220441E+0	1.152424E+0	1.132656E+0	1.156292E+0	1.167545E+0	1.165737E+0	1.102529E+0	1.118819E+0	1.123831E+0	1.133053E+0	1.213175E+0	1.113218E+0	1.123912E+0	1.174982E+0	1.169834E+0	1.124769E+0	1.127948E+0	1.192917E+0	1.129306E+0	1.183534E+0	1.185849E+0	1.128566E+0	1.132573E+0	1.097703E+0	1.168623E+0	1.206138E+0	1.116253E+0	1.108488E+0	1.155041E+0	1.124304E+0	1.149898E+0	1.156534E+0	1.152923E+0	1.227241E+0	1.161572E+0
2.940080E+2	1.027943E+0	1.041506E+0	1.060423E+0	1.069469E+0	1.074337E+0	1.051192E+0	9.669728E-1	1.034686E+0	1.020529E+0	1.071628E+0	1.009956E+0	1.021957E+0	1.016771E+0	1.091727E+0	1.032400E+0	1.054684E+0	1.003019E+0	1.074675E+0	9.799265E-1	1.034554E+0	1.038475E+0	1.074221E+0	1.049912E+0	1.068379E+0	1.049473E+0	1.089857E+0	1.015634E+0	1.028346E+0	1.070467E+0	1.081841E+0	1.046604E+0	1.014406E+0	1.071914E+0	1.046502E+0	1.063900E+0	1.042878E+0	1.066636E+0	1.026988E+0	1.071628E+0	1.083134E+0	1.022380E+0	1.058694E+0	1.067606E+0	1.056536E+0	1.086013E+0	1.042237E+0	1.046734E+0	9.912748E-1	1.011003E+0	1.001499E+0	1.076779E+0	1.062310E+0	1.022599E+0	1.055602E+0	1.055280E+0	1.032718E+0	1.032066E+0	9.550781E-1	9.907897E-1	1.059007E+0	1.095354E+0	1.042241E+0	1.056902E+0	1.061819E+0	1.007156E+0	1.015951E+0	1.034129E+0	1.045044E+0	1.050578E+0	1.022634E+0	1.042606E+0	1.017033E+0	1.100846E+0	9.986571E-1	1.032173E+0	1.027753E+0	1.079267E+0	1.044962E+0	1.077831E+0	1.078395E+0	1.068636E+0	1.027680E+0	1.033387E+0	1.017738E+0	1.107525E+0	1.026766E+0	1.046899E+0	1.042467E+0	9.837819E-1	1.066067E+0	1.059573E+0	1.027740E+0	1.078605E+0	1.010926E+0	1.024886E+0	1.081141E+0	1.031207E+0	1.059609E+0	1.022766E+0	1.039978E+0	1.066631E+0	9.965009E-1	1.053556E+0	1.084894E+0	1.082808E+0	1.084064E+0	1.051232E+0	9.964752E-1	1.096513E+0	1.052946E+0	1.023881E+0	1.096170E+0	1.063403E+0	1.036243E+0	1.027141E+0	1.011127E+0	1.086101E+0	1.021052E+0	1.102969E+0	1.034175E+0	1.031450E+0	1.024099E+0	9.859349E-1	1.041068E+0	1.046084E+0	1.087134E+0	1.096803E+0	1.057483E+0	1.103416E+0	1.045580E+0	1.060638E+0	1.019677E+0	1.035394E+0	1.019274E+0	1.022775E+0	9.821059E-1	1.078004E+0	1.080059E+0	1.043128E+0	1.031747E+0	1.095184E+0	1.007515E+0	1.072251E+0	1.045643E+0	1.034852E+0	1.079747E+0	1.093990E+0	1.035092E+0	1.033408E+0	1.039325E+0	1.087624E+0	1.033639E+0	1.056814E+0	1.066217E+0	1.057320E+0	1.046624E+0	1.065536E+0	1.043569E+0	1.029851E+0	1.068327E+0	1.068881E+0	1.076944E+0	1.061426E+0	1.031213E+0	1.079477E+0	1.032283E+0	1.027879E+0	1.064955E+0	1.033475E+0	1.055414E+0	1.008539E+0
2.945010E+2	9.479828E-1	9.807577E-1	9.745102E-1	9.415293E-1	9.283988E-1	9.791949E-1	8.782212E-1	9.345846E-1	9.451148E-1	9.389030E-1	9.841752E-1	9.774733E-1	9.872466E-1	9.865440E-1	9.625749E-1	9.968594E-1	9.668905E-1	1.043068E+0	9.611515E-1	9.631704E-1	9.477230E-1	9.483461E-1	9.892837E-1	9.775270E-1	9.781058E-1	9.284322E-1	9.790866E-1	9.400579E-1	9.675635E-1	9.094278E-1	9.672655E-1	9.283046E-1	9.020677E-1	9.769777E-1	9.788189E-1	9.355508E-1	9.440567E-1	1.003795E+0	9.447127E-1	9.440800E-1	8.960409E-1	9.846643E-1	9.707871E-1	8.817772E-1	9.897709E-1	9.552400E-1	9.695682E-1	9.780793E-1	9.751337E-1	9.829462E-1	9.640787E-1	9.883998E-1	9.684714E-1	9.491337E-1	9.538855E-1	9.173148E-1	9.770591E-1	9.821629E-1	1.016393E+0	9.449421E-1	9.558184E-1	9.517475E-1	9.832179E-1	9.587033E-1	9.661033E-1	9.465482E-1	9.647676E-1	9.999870E-1	9.911654E-1	9.977385E-1	9.553118E-1	9.601032E-1	9.806985E-1	1.004567E+0	9.190897E-1	9.436141E-1	9.772030E-1	9.360994E-1	9.640802E-1	9.564207E-1	9.630140E-1	9.385138E-1	9.654050E-1	9.187656E-1	9.682766E-1	9.292030E-1	9.600535E-1	9.617034E-1	9.964879E-1	9.560863E-1	9.372474E-1	9.697375E-1	9.872054E-1	9.937289E-1	9.474529E-1	9.688755E-1	9.617628E-1	9.730786E-1	9.682447E-1	9.195340E-1	9.509654E-1	9.843154E-1	9.953779E-1	9.686631E-1	9.940481E-1	9.919239E-1	9.488683E-1	9.723123E-1	9.889971E-1	9.509970E-1	8.975649E-1	9.308129E-1	1.006542E+0	9.102985E-1	9.496340E-1	9.636146E-1	9.315897E-1	9.366533E-1	9.573285E-1	9.424681E-1	9.858596E-1	9.622940E-1	9.480510E-1	1.001355E+0	9.912073E-1	9.493327E-1	9.828060E-1	9.449222E-1	9.920185E-1	9.321932E-1	9.474194E-1	1.014090E+0	9.431960E-1	9.368286E-1	9.412614E-1	9.365968E-1	9.846164E-1	9.725870E-1	9.543498E-1	9.570374E-1	1.000069E+0	9.049236E-1	1.013795E+0	9.245948E-1	9.877746E-1	9.900783E-1	9.858399E-1	9.587895E-1	1.020798E+0	1.009678E+0	1.002978E+0	9.346738E-1	9.829973E-1	9.776582E-1	1.003095E+0	9.605031E-1	1.028697E+0	9.683108E-1	1.001886E+0	9.843798E-1	1.011641E+0	9.736427E-1	9.126545E-1	9.683758E-1	9.482240E-1	9.644457E-1	9.565623E-1	9.847721E-1	9.752812E-1	9.888509E-1	9.424330E-1
2.950070E+2	9.452868E-1	9.823258E-1	9.854841E-1	9.634747E-1	9.219646E-1	9.617422E-1	9.601854E-1	9.263577E-1	9.483264E-1	9.850367E-1	9.777634E-1	1.000927E+0	1.020398E+0	1.016510E+0	9.648087E-1	9.583684E-1	9.865223E-1	9.559101E-1	9.713805E-1	9.460501E-1	1.004271E+0	1.000022E+0	9.239852E-1	9.543152E-1	9.793571E-1	9.681895E-1	1.025222E+0	9.780170E-1	9.879960E-1	9.518580E-1	9.646589E-1	9.427802E-1	9.448497E-1	9.762028E-1	9.657038E-1	9.819834E-1	9.552853E-1	9.549823E-1	9.683602E-1	9.968668E-1	9.373719E-1	9.925982E-1	9.194541E-1	9.635868E-1	9.675679E-1	9.531625E-1	9.282945E-1	9.774126E-1	9.966597E-1	1.040886E+0	9.320794E-1	1.008188E+0	1.009009E+0	9.783790E-1	9.968926E-1	9.646730E-1	9.505701E-1	9.443063E-1	1.014823E+0	9.828133E-1	9.785351E-1	9.995902E-1	9.551010E-1	9.718478E-1	9.549634E-1	9.894252E-1	9.891858E-1	9.633561E-1	9.188326E-1	9.125965E-1	9.536988E-1	9.699952E-1	9.654594E-1	9.592236E-1	9.436693E-1	9.544656E-1	1.008139E+0	1.014258E+0	9.592802E-1	1.007091E+0	9.690081E-1	9.213314E-1	9.319528E-1	9.660814E-1	9.895155E-1	9.596002E-1	9.415052E-1	9.837871E-1	9.883106E-1	9.769109E-1	9.667585E-1	8.993387E-1	1.021379E+0	9.755624E-1	9.954535E-1	9.823977E-1	9.565521E-1	9.854813E-1	9.464109E-1	9.377155E-1	9.390002E-1	9.300014E-1	1.012020E+0	1.010256E+0	9.979845E-1	1.029187E+0	9.476249E-1	9.620813E-1	1.002955E+0	9.404805E-1	9.894048E-1	1.012925E+0	9.845911E-1	9.751455E-1	9.716042E-1	1.017355E+0	1.007981E+0	9.660183E-1	1.004156E+0	9.852799E-1	9.899891E-1	9.711481E-1	9.917384E-1	9.687474E-1	9.853475E-1	9.396788E-1	9.630262E-1	9.407040E-1	9.314613E-1	1.015107E+0	9.479304E-1	9.682415E-1	9.694559E-1	9.559895E-1	1.003450E+0	9.383887E-1	9.610986E-1	1.001399E+0	9.675590E-1	9.711399E-1	1.012100E+0	9.562329E-1	9.993555E-1	9.844112E-1	1.014009E+0	1.029288E+0	9.950305E-1	9.490262E-1	9.998014E-1	9.811600E-1	1.062366E+0	9.759595E-1	9.205697E-1	1.003153E+0	9.280754E-1	9.964612E-1	1.033312E+0	9.213572E-1	9.298602E-1	9.350715E-1	9.936466E-1	1.000522E+0	9.429007E-1	9.637024E-1	9.961387E-1	1.005418E+0	9.740644E-1	9.417897E-1	9.749383E-1	9.742781E-1	9.705409E-1
2.955070E+2	1.064333E+0	1.082319E+0	1.113981E+0	1.011709E+0	1.029299E+0	1.026656E+0	1.023228E+0	1.059705E+0	1.084979E+0	9.934608E-1	1.105961E+0	1.080892E+0	1.057821E+0	1.045750E+0	1.034027E+0	1.040059E+0	1.006665E+0	1.084439E+0	1.054559E+0	1.081784E+0	1.051836E+0	1.049984E+0	1.046387E+0	1.067527E+0	1.051580E+0	1.059628E+0	1.069043E+0	1.011496E+0	1.111474E+0	1.058800E+0	1.114030E+0	1.060191E+0	1.045288E+0	1.095152E+0	1.077445E+0	1.003242E+0	9.969233E-1	9.924963E-1	1.041297E+0	1.113985E+0	1.057216E+0	1.092681E+0	1.055341E+0	1.039731E+0	1.065517E+0	1.051255E+0	1.045421E+0	1.096636E+0	1.081486E+0	1.107483E+0	1.046284E+0	1.077922E+0	1.069875E+0	1.045669E+0	1.040783E+0	1.040989E+0	1.049592E+0	1.058384E+0	1.124216E+0	1.033243E+0	1.101045E+0	1.097657E+0	1.047902E+0	1.090378E+0	1.023561E+0	1.106719E+0	1.066235E+0	1.071402E+0	1.047181E+0	1.055078E+0	1.032705E+0	1.065028E+0	1.036915E+0	1.066572E+0	1.067888E+0	1.050172E+0	1.051390E+0	1.095529E+0	1.050175E+0	1.067613E+0	9.694216E-1	1.093989E+0	1.010659E+0	1.109005E+0	1.059407E+0	1.060449E+0	1.055412E+0	1.031932E+0	1.064863E+0	1.096453E+0	1.138544E+0	1.047931E+0	1.065403E+0	1.118951E+0	1.043935E+0	1.039885E+0	1.084687E+0	1.058602E+0	1.056111E+0	1.002903E+0	1.055998E+0	1.039239E+0	1.078459E+0	1.056385E+0	1.114441E+0	1.081573E+0	1.063680E+0	1.137876E+0	1.057796E+0	1.095866E+0	1.015438E+0	1.057048E+0	1.062395E+0	1.078294E+0	1.096982E+0	1.008979E+0	1.080964E+0	1.111440E+0	1.035506E+0	1.107611E+0	1.053976E+0	1.076400E+0	1.088313E+0	1.073369E+0	1.082382E+0	1.100247E+0	1.087421E+0	1.077260E+0	1.135154E+0	1.100508E+0	1.099570E+0	1.053550E+0	1.120929E+0	1.087873E+0	1.121367E+0	1.043175E+0	1.092388E+0	1.049054E+0	1.059936E+0	1.032059E+0	1.051598E+0	1.069770E+0	1.091183E+0	1.016704E+0	1.014410E+0	1.108920E+0	1.087368E+0	1.122946E+0	1.047045E+0	1.133333E+0	1.102143E+0	1.040688E+0	1.085992E+0	1.066619E+0	1.037328E+0	1.083424E+0	1.104074E+0	1.103151E+0	1.061736E+0	1.052074E+0	1.085712E+0	1.092384E+0	1.095223E+0	1.064093E+0	1.049069E+0	1.041771E+0	1.102767E+0	1.064268E+0	1.004224E+0	1.170004E+0	1.129997E+0
2.960030E+2	1.088826E+0	1.095059E+0	1.131831E+0	1.071258E+0	1.120290E+0	1.126874E+0	1.109431E+0	1.135975E+0	1.081930E+0	1.071867E+0	1.112716E+0	1.105041E+0	1.116698E+0	1.099511E+0	1.099250E+0	1.088172E+0	1.084372E+0	1.137884E+0	1.086402E+0	1.059912E+0	1.152777E+0	1.092974E+0	1.059340E+0	1.104768E+0	1.132185E+0	1.158728E+0	1.100709E+0	1.106243E+0	1.074587E+0	1.092984E+0	1.156424E+0	1.116632E+0	1.114290E+0	1.108999E+0	1.047188E+0	1.063698E+0	1.056483E+0	1.065497E+0	1.086705E+0	1.092853E+0	1.062563E+0	1.106024E+0	1.141419E+0	1.122457E+0	1.118322E+0	1.091882E+0	1.081362E+0	1.066917E+0	1.126690E+0	1.122226E+0	1.109423E+0	1.093846E+0	1.067531E+0	1.156710E+0	1.066011E+0	1.124297E+0	1.092973E+0	1.075053E+0	1.134653E+0	1.121100E+0	1.054620E+0	1.134576E+0	1.135620E+0	1.119439E+0	1.048776E+0	1.138092E+0	1.129107E+0	1.103159E+0	1.105437E+0	1.070638E+0	1.117826E+0	1.132162E+0	1.101812E+0	1.107612E+0	1.045142E+0	1.121255E+0	1.107864E+0	1.111649E+0	1.079109E+0	1.059175E+0	1.055938E+0	1.141441E+0	1.113950E+0	1.089289E+0	1.154402E+0	1.101604E+0	1.125329E+0	1.096392E+0	1.116351E+0	1.127701E+0	1.087545E+0	1.088901E+0	1.090512E+0	1.117998E+0	1.103715E+0	1.049919E+0	1.100054E+0	1.112109E+0	1.050680E+0	1.099241E+0	1.096494E+0	1.077983E+0	1.122455E+0	1.083147E+0	1.130839E+0	1.102349E+0	1.096174E+0	1.027460E+0	1.101414E+0	1.095490E+0	1.108810E+0	1.113856E+0	1.093149E+0	1.125967E+0	1.075374E+0	1.127646E+0	1.092335E+0	1.097349E+0	1.101328E+0	1.063582E+0	1.114617E+0	1.157131E+0	1.113668E+0	1.077412E+0	1.095314E+0	1.151566E+0	1.125329E+0	1.092448E+0	1.067284E+0	1.082701E+0	1.080392E+0	1.102247E+0	1.070871E+0	1.050096E+0	1.091848E+0	1.125738E+0	1.142159E+0	1.113148E+0	1.076177E+0	1.111359E+0	1.096791E+0	1.081631E+0	1.143638E+0	1.103908E+0	1.045443E+0	1.141123E+0	1.092852E+0	1.071214E+0	1.098203E+0	1.144207E+0	1.145199E+0	1.082023E+0	1.080868E+0	1.138486E+0	1.061970E+0	1.101396E+0	1.120316E+0	1.054562E+0	1.051738E+0	1.098659E+0	1.088107E+0	1.081169E+0	1.102017E+0	1.091585E+0	1.118417E+0	1.102532E+0	1.115073E+0	1.129083E+0	1.136310E+0	1.131823E+0	1.154399E+0
2.964980E+2	9.785656E-1	9.970767E-1	9.859076E-1	9.662998E-1	1.041713E+0	1.059236E+0	9.852349E-1	1.022326E+0	1.024469E+0	1.014453E+0	9.764182E-1	9.873217E-1	1.008452E+0	9.925485E-1	9.749708E-1	1.001249E+0	1.014728E+0	1.044873E+0	1.023222E+0	1.009951E+0	1.032119E+0	1.078850E+0	1.025399E+0	1.019294E+0	1.037169E+0	9.782351E-1	1.033560E+0	1.023309E+0	9.956341E-1	1.011897E+0	1.038904E+0	9.835671E-1	1.042293E+0	1.014535E+0	9.973030E-1	9.767671E-1	9.660985E-1	9.914014E-1	9.976788E-1	1.088026E+0	9.994743E-1	9.731958E-1	1.037233E+0	1.017786E+0	1.008766E+0	9.735777E-1	1.011138E+0	1.015293E+0	9.836362E-1	9.842719E-1	1.036146E+0	1.060559E+0	9.582212E-1	1.015379E+0	9.913778E-1	1.002946E+0	9.951995E-1	9.793503E-1	1.012102E+0	9.828515E-1	1.008385E+0	1.052669E+0	9.909882E-1	1.033569E+0	9.817601E-1	1.022369E+0	1.003607E+0	9.535346E-1	1.047139E+0	1.031918E+0	9.902984E-1	1.025563E+0	1.004719E+0	1.023194E+0	9.926648E-1	9.986539E-1	1.033668E+0	1.027208E+0	9.859634E-1	1.037463E+0	1.028854E+0	9.907149E-1	1.017173E+0	1.006058E+0	1.039295E+0	1.033022E+0	1.005547E+0	1.047146E+0	9.602735E-1	9.933942E-1	9.741708E-1	1.030486E+0	1.016145E+0	1.034028E+0	9.941516E-1	1.016616E+0	9.645798E-1	9.892464E-1	9.648905E-1	9.488477E-1	9.989791E-1	9.914120E-1	1.021357E+0	9.951642E-1	1.033196E+0	1.007919E+0	1.034382E+0	1.004828E+0	9.880156E-1	9.897637E-1	1.002964E+0	1.009090E+0	1.036795E+0	9.632406E-1	9.846463E-1	1.044372E+0	1.060569E+0	9.837757E-1	9.976517E-1	1.015262E+0	9.893646E-1	1.025242E+0	1.013610E+0	1.027783E+0	1.005567E+0	1.035685E+0	9.595431E-1	1.025155E+0	9.831853E-1	1.045549E+0	1.045962E+0	1.070262E+0	1.012968E+0	9.827723E-1	1.016381E+0	9.674434E-1	1.049744E+0	1.014702E+0	1.001829E+0	9.931451E-1	9.815691E-1	9.781430E-1	1.053223E+0	1.012696E+0	9.933687E-1	1.038528E+0	1.043640E+0	9.641244E-1	1.000862E+0	1.037457E+0	1.009430E+0	9.937034E-1	1.017623E+0	1.092442E+0	1.024026E+0	1.009047E+0	1.070617E+0	1.011743E+0	1.001773E+0	9.910944E-1	9.823069E-1	1.057041E+0	9.519383E-1	1.021490E+0	9.915873E-1	9.842877E-1	1.015935E+0	9.890151E-1	9.380085E-1	1.077197E+0	1.058185E+0
2.970040E+2	8.306962E-1	9.050598E-1	8.838653E-1	8.965733E-1	9.092840E-1	8.583732E-1	8.963338E-1	9.186701E-1	8.940526E-1	9.140333E-1	8.448128E-1	8.725521E-1	8.869610E-1	9.544055E-1	8.703378E-1	8.616392E-1	8.710588E-1	8.843638E-1	8.806240E-1	8.782707E-1	8.484732E-1	9.439015E-1	8.926087E-1	8.860982E-1	8.938691E-1	8.564814E-1	9.021073E-1	9.270126E-1	8.756646E-1	9.047040E-1	9.109721E-1	8.763026E-1	9.216211E-1	9.161225E-1	9.048096E-1	8.944781E-1	8.627303E-1	8.530959E-1	8.649749E-1	9.153179E-1	8.451357E-1	8.907809E-1	8.801518E-1	8.625823E-1	9.004608E-1	8.709023E-1	8.663507E-1	8.887645E-1	8.926462E-1	9.111473E-1	8.946571E-1	8.964437E-1	8.480855E-1	9.289651E-1	8.592837E-1	8.663583E-1	9.048559E-1	8.997911E-1	8.839775E-1	8.934545E-1	8.537009E-1	8.626466E-1	8.849474E-1	9.470099E-1	8.677263E-1	8.758231E-1	9.211322E-1	8.980044E-1	8.855620E-1	9.237724E-1	8.835242E-1	8.865366E-1	8.644551E-1	8.888299E-1	8.598207E-1	9.105374E-1	9.066099E-1	8.791835E-1	8.741222E-1	9.225553E-1	8.754531E-1	8.621679E-1	8.835455E-1	8.895720E-1	9.107063E-1	9.016090E-1	8.961125E-1	8.418687E-1	9.180873E-1	8.893903E-1	9.127758E-1	8.988351E-1	8.720483E-1	8.586702E-1	8.808100E-1	9.068302E-1	9.233662E-1	9.254208E-1	8.878125E-1	9.048820E-1	9.054448E-1	9.133103E-1	9.065260E-1	9.111773E-1	9.530776E-1	8.883536E-1	9.175435E-1	8.384485E-1	9.171263E-1	8.927854E-1	8.841210E-1	9.262074E-1	8.773500E-1	8.831692E-1	9.409470E-1	8.835215E-1	9.073696E-1	8.623819E-1	9.022799E-1	9.067193E-1	9.217280E-1	9.071167E-1	9.001402E-1	8.747605E-1	9.124987E-1	8.760397E-1	8.833906E-1	8.934527E-1	8.698386E-1	8.732821E-1	8.845664E-1	8.736971E-1	8.536775E-1	8.717559E-1	8.929932E-1	8.792293E-1	9.337421E-1	9.478712E-1	8.650555E-1	9.375186E-1	8.957752E-1	8.492298E-1	8.746979E-1	9.115349E-1	9.063316E-1	9.068899E-1	9.237246E-1	9.303540E-1	8.900642E-1	8.723012E-1	9.103375E-1	9.080757E-1	8.547166E-1	8.868707E-1	8.614087E-1	8.888364E-1	9.507490E-1	8.609964E-1	8.275866E-1	8.821127E-1	9.017745E-1	9.302116E-1	8.543599E-1	8.848590E-1	8.527763E-1	8.844183E-1	9.310233E-1	8.556414E-1	8.857466E-1	8.527649E-1	9.622661E-1
2.975020E+2	9.168922E-1	9.591085E-1	9.223402E-1	9.373475E-1	8.949803E-1	9.633044E-1	9.491871E-1	9.344286E-1	9.683060E-1	9.447031E-1	9.286129E-1	9.535009E-1	9.265221E-1	9.434039E-1	9.379301E-1	9.332685E-1	9.151503E-1	9.487772E-1	9.156899E-1	9.166159E-1	9.595950E-1	9.585453E-1	9.395519E-1	9.399779E-1	9.053183E-1	9.638375E-1	9.364389E-1	9.223377E-1	9.237597E-1	9.364516E-1	9.058338E-1	9.711020E-1	9.414262E-1	9.211577E-1	9.237159E-1	9.284867E-1	9.534273E-1	9.343689E-1	9.069650E-1	9.384499E-1	9.373516E-1	9.247751E-1	9.328994E-1	8.892821E-1	9.316299E-1	9.246156E-1	9.413539E-1	9.404211E-1	9.568966E-1	9.103332E-1	9.520246E-1	9.361028E-1	9.277744E-1	9.530949E-1	9.366377E-1	9.303883E-1	9.165158E-1	9.438168E-1	9.434691E-1	9.325334E-1	9.255063E-1	9.421947E-1	9.011796E-1	9.438870E-1	9.610360E-1	9.167360E-1	9.455217E-1	9.222723E-1	9.320263E-1	9.486628E-1	9.362471E-1	9.089264E-1	9.075934E-1	9.634171E-1	9.517259E-1	9.047742E-1	9.068687E-1	9.829289E-1	9.493650E-1	9.079214E-1	9.527561E-1	9.838376E-1	9.018268E-1	9.468914E-1	9.413807E-1	9.162863E-1	8.960905E-1	9.580489E-1	9.440738E-1	9.505014E-1	9.454589E-1	9.605373E-1	9.254153E-1	9.609331E-1	9.443006E-1	9.155315E-1	9.261495E-1	9.498715E-1	9.550017E-1	9.112229E-1	9.416213E-1	9.338945E-1	9.331425E-1	9.237273E-1	9.468081E-1	9.405792E-1	9.558768E-1	9.538809E-1	9.356801E-1	9.381651E-1	9.378557E-1	9.326386E-1	9.541142E-1	9.431024E-1	9.085963E-1	9.373222E-1	9.444115E-1	9.147953E-1	9.365645E-1	9.206921E-1	9.370864E-1	9.488311E-1	9.440305E-1	9.207936E-1	9.588330E-1	9.227564E-1	9.750359E-1	9.498344E-1	9.011266E-1	9.484634E-1	9.423366E-1	9.546455E-1	9.300863E-1	8.995276E-1	9.495488E-1	9.167570E-1	8.908710E-1	9.243543E-1	9.133607E-1	9.797143E-1	9.236621E-1	9.026913E-1	9.341327E-1	9.253002E-1	9.152074E-1	9.407970E-1	9.521057E-1	9.430774E-1	9.319367E-1	9.800016E-1	9.297503E-1	9.155361E-1	9.458861E-1	9.220979E-1	9.368644E-1	9.444420E-1	9.260286E-1	9.212033E-1	9.667870E-1	9.489372E-1	9.371134E-1	9.327917E-1	9.296335E-1	9.312114E-1	9.278780E-1	9.310522E-1	9.618583E-1	9.022058E-1	9.335774E-1	8.924530E-1	8.912205E-1
2.980020E+2	9.775682E-1	9.698183E-1	1.016527E+0	1.017456E+0	1.007892E+0	9.990750E-1	9.678490E-1	1.018769E+0	9.918820E-1	1.056563E+0	9.812071E-1	1.002193E+0	1.010886E+0	9.685564E-1	9.919300E-1	9.645772E-1	9.833997E-1	1.024853E+0	1.006095E+0	1.001372E+0	9.981922E-1	9.825042E-1	9.771066E-1	1.033973E+0	9.589299E-1	9.761024E-1	9.843371E-1	1.011666E+0	9.846731E-1	1.005190E+0	1.002766E+0	1.017918E+0	9.877464E-1	1.016382E+0	1.016144E+0	1.001781E+0	9.574761E-1	1.009488E+0	1.039003E+0	1.009413E+0	9.924122E-1	1.006615E+0	1.005817E+0	1.030179E+0	9.780239E-1	1.020816E+0	1.019368E+0	9.354317E-1	1.011894E+0	1.045078E+0	1.030686E+0	9.901657E-1	9.888760E-1	1.020427E+0	9.578059E-1	1.002742E+0	9.650388E-1	9.806247E-1	9.897927E-1	9.886285E-1	1.008102E+0	1.025243E+0	1.012774E+0	9.911562E-1	1.008548E+0	1.001103E+0	1.015403E+0	9.946073E-1	9.872759E-1	9.874571E-1	9.765553E-1	9.940623E-1	1.022744E+0	9.484950E-1	9.977603E-1	1.001581E+0	1.034055E+0	1.008312E+0	9.849171E-1	9.911472E-1	9.847625E-1	9.961905E-1	9.965614E-1	1.008251E+0	1.001240E+0	9.812506E-1	1.018422E+0	9.950723E-1	9.780822E-1	1.001475E+0	9.909477E-1	9.858588E-1	9.849442E-1	9.626698E-1	9.985943E-1	1.000109E+0	9.663169E-1	1.027600E+0	9.788530E-1	9.849449E-1	1.009494E+0	1.003975E+0	1.012583E+0	1.001279E+0	9.877111E-1	9.608362E-1	1.026503E+0	1.007642E+0	9.983531E-1	9.719515E-1	1.018896E+0	1.023230E+0	9.488979E-1	9.834337E-1	1.036217E+0	1.047853E+0	9.847432E-1	1.013835E+0	1.016177E+0	1.004697E+0	1.029355E+0	1.021890E+0	9.789664E-1	9.902031E-1	9.937190E-1	9.995948E-1	9.896243E-1	1.001512E+0	9.621211E-1	1.060700E+0	9.595714E-1	9.982783E-1	9.531495E-1	1.004692E+0	1.002937E+0	9.900238E-1	9.689782E-1	1.018759E+0	1.021310E+0	9.979275E-1	9.830090E-1	9.780061E-1	9.643737E-1	1.018583E+0	1.045635E+0	1.005555E+0	1.005940E+0	1.008930E+0	1.041584E+0	9.711373E-1	1.026257E+0	1.016598E+0	9.883370E-1	1.005455E+0	1.002439E+0	1.023981E+0	1.013744E+0	9.955139E-1	9.976807E-1	1.028066E+0	9.801858E-1	1.005698E+0	1.010177E+0	1.014919E+0	1.037103E+0	9.862917E-1	9.956430E-1	9.882926E-1	9.663832E-1	9.785629E-1	1.004478E+0
2.985020E+2	1.086763E+0	1.079440E+0	1.005957E+0	1.054629E+0	1.039494E+0	1.008370E+0	1.036324E+0	1.053110E+0	1.034258E+0	1.044374E+0	1.023352E+0	1.052068E+0	1.064687E+0	1.050743E+0	1.054575E+0	1.034693E+0	1.046942E+0	1.063760E+0	1.061385E+0	9.941574E-1	1.050821E+0	1.025465E+0	1.030382E+0	1.044422E+0	1.062537E+0	1.075834E+0	1.033836E+0	1.068325E+0	1.032586E+0	1.079918E+0	1.056268E+0	1.042252E+0	1.059269E+0	1.014698E+0	1.042326E+0	1.061501E+0	1.099685E+0	1.036388E+0	1.037032E+0	1.024916E+0	1.025122E+0	1.080430E+0	1.036548E+0	1.081810E+0	1.043304E+0	1.022504E+0	1.008378E+0	1.082832E+0	1.037985E+0	1.057363E+0	9.980441E-1	1.059332E+0	1.056401E+0	1.040717E+0	1.075040E+0	1.058098E+0	1.057896E+0	1.006419E+0	1.017606E+0	1.057663E+0	1.074133E+0	1.049498E+0	1.004389E+0	1.019797E+0	1.055214E+0	1.032870E+0	1.045743E+0	1.058600E+0	1.048647E+0	1.046030E+0	1.037644E+0	1.108561E+0	1.048117E+0	1.051257E+0	1.052396E+0	1.015368E+0	1.039501E+0	1.034453E+0	1.076560E+0	1.043184E+0	1.041206E+0	1.028288E+0	1.041502E+0	1.067899E+0	1.056340E+0	1.066101E+0	1.037642E+0	1.073396E+0	1.056703E+0	1.067270E+0	1.046775E+0	1.019099E+0	1.071620E+0	1.092019E+0	1.091972E+0	1.049720E+0	1.049998E+0	1.056227E+0	1.086153E+0	1.084447E+0	1.059448E+0	1.046766E+0	1.039417E+0	1.061345E+0	1.043463E+0	1.076738E+0	1.039274E+0	1.080836E+0	1.035140E+0	1.039613E+0	9.959313E-1	1.007898E+0	1.017664E+0	1.012030E+0	1.017190E+0	1.042525E+0	1.086515E+0	1.062031E+0	1.036524E+0	1.062295E+0	1.014184E+0	1.037484E+0	1.049264E+0	1.044361E+0	9.939359E-1	1.050435E+0	1.030992E+0	1.050271E+0	1.066556E+0	1.041924E+0	1.062617E+0	1.052037E+0	1.056988E+0	1.078603E+0	1.050974E+0	1.075695E+0	1.102249E+0	1.034107E+0	1.039768E+0	1.009461E+0	1.085311E+0	1.053543E+0	1.033224E+0	1.046228E+0	1.019891E+0	1.018274E+0	1.022180E+0	1.057441E+0	9.937122E-1	1.062507E+0	1.050869E+0	1.061336E+0	1.032814E+0	1.021003E+0	1.023869E+0	1.044908E+0	1.069252E+0	1.094718E+0	1.024964E+0	1.008699E+0	1.034545E+0	1.042328E+0	9.927291E-1	1.041494E+0	1.058213E+0	1.050620E+0	1.025981E+0	1.058409E+0	1.059994E+0	1.025553E+0	1.109699E+0
2.990020E+2	1.073801E+0	1.019959E+0	1.079331E+0	1.023858E+0	1.067719E+0	1.026051E+0	1.024002E+0	1.016141E+0	1.015105E+0	1.014664E+0	1.075753E+0	1.038080E+0	1.031781E+0	1.053249E+0	1.032638E+0	1.072739E+0	1.057150E+0	1.029877E+0	1.026747E+0	1.074438E+0	1.059637E+0	1.053592E+0	1.025145E+0	1.054972E+0	1.050538E+0	1.091349E+0	1.028212E+0	1.055042E+0	1.061965E+0	1.049268E+0	1.028448E+0	9.904467E-1	1.028529E+0	1.083614E+0	1.054842E+0	1.035223E+0	1.026606E+0	1.059907E+0	1.044479E+0	1.060650E+0	1.041487E+0	1.027600E+0	1.050890E+0	1.042568E+0	1.037071E+0	1.068650E+0	1.071736E+0	1.039015E+0	1.012298E+0	1.060459E+0	1.056649E+0	1.055160E+0	1.056141E+0	1.015945E+0	1.051838E+0	1.069282E+0	1.024691E+0	1.075307E+0	1.038476E+0	1.023744E+0	1.049775E+0	1.049366E+0	1.053322E+0	1.021895E+0	1.023825E+0	1.066449E+0	1.021657E+0	1.060462E+0	1.024886E+0	1.070257E+0	1.031617E+0	1.062354E+0	1.046582E+0	1.021542E+0	1.031001E+0	1.050291E+0	1.019011E+0	1.026452E+0	1.034905E+0	1.031890E+0	1.035019E+0	1.035352E+0	1.053187E+0	1.027172E+0	1.013783E+0	1.045478E+0	1.050058E+0	1.010011E+0	1.019724E+0	1.006989E+0	1.003873E+0	1.066214E+0	1.053565E+0	1.031544E+0	1.013078E+0	1.052516E+0	1.061640E+0	1.025605E+0	1.029549E+0	1.024123E+0	1.036382E+0	1.008077E+0	1.077603E+0	1.051982E+0	1.034824E+0	1.008906E+0	1.016382E+0	9.941158E-1	1.042235E+0	1.066842E+0	1.057145E+0	1.044326E+0	1.050565E+0	1.042194E+0	1.044180E+0	1.044257E+0	1.016090E+0	1.024107E+0	1.032900E+0	1.062320E+0	1.038856E+0	1.057826E+0	1.002112E+0	1.051835E+0	1.034897E+0	1.053186E+0	1.042987E+0	1.013553E+0	1.068497E+0	1.053187E+0	1.055108E+0	1.067144E+0	1.070458E+0	1.049389E+0	1.026943E+0	1.029809E+0	1.073375E+0	1.015091E+0	1.069543E+0	1.051968E+0	1.028092E+0	1.066964E+0	1.039587E+0	1.091191E+0	1.047890E+0	1.047485E+0	1.037564E+0	1.028817E+0	1.099246E+0	1.032333E+0	1.071017E+0	1.031650E+0	1.032429E+0	1.054532E+0	1.055228E+0	1.044451E+0	1.031520E+0	1.015149E+0	1.060838E+0	1.031099E+0	1.026299E+0	1.020866E+0	1.054393E+0	1.030680E+0	1.051935E+0	1.026713E+0	1.023721E+0	1.064739E+0	1.043886E+0	1.075824E+0	1.072223E+0
2.995060E+2	9.641627E-1	9.732166E-1	9.844057E-1	9.845612E-1	1.013170E+0	9.697352E-1	9.866287E-1	9.653846E-1	1.013163E+0	9.747806E-1	9.943817E-1	9.677257E-1	9.871549E-1	9.905617E-1	9.906781E-1	9.809174E-1	1.004974E+0	9.677937E-1	9.830480E-1	9.997723E-1	9.344776E-1	9.944570E-1	1.025392E+0	9.554840E-1	1.028158E+0	9.474334E-1	1.004057E+0	9.737876E-1	1.015627E+0	9.387398E-1	1.008684E+0	1.004211E+0	9.920307E-1	9.974986E-1	9.563350E-1	1.015194E+0	9.838669E-1	9.727291E-1	9.759080E-1	9.721622E-1	1.000772E+0	9.719560E-1	9.815632E-1	9.662437E-1	9.979594E-1	9.937084E-1	9.650705E-1	9.896040E-1	1.000279E+0	9.655821E-1	9.741562E-1	9.626798E-1	1.022759E+0	9.908571E-1	9.847533E-1	9.795951E-1	9.949468E-1	9.824994E-1	9.888331E-1	9.971920E-1	9.589678E-1	9.342761E-1	9.946775E-1	9.898939E-1	9.870121E-1	9.997085E-1	9.973544E-1	9.670099E-1	9.997291E-1	9.572943E-1	1.011040E+0	9.605856E-1	1.017209E+0	1.005882E+0	9.696201E-1	1.007153E+0	1.005313E+0	9.796508E-1	9.553298E-1	1.031356E+0	9.792238E-1	9.771897E-1	9.970917E-1	9.932246E-1	9.955707E-1	9.917846E-1	9.936302E-1	9.820629E-1	9.865087E-1	9.513538E-1	1.005061E+0	9.717557E-1	9.790273E-1	9.685193E-1	9.775189E-1	9.829996E-1	1.007640E+0	9.633143E-1	9.479895E-1	9.940399E-1	9.863666E-1	1.005919E+0	9.441367E-1	9.889567E-1	9.957326E-1	9.910613E-1	9.462935E-1	1.010356E+0	9.925226E-1	9.646691E-1	1.009071E+0	9.776718E-1	1.020079E+0	9.845823E-1	9.838007E-1	9.481462E-1	9.564190E-1	9.768079E-1	9.763451E-1	9.636919E-1	1.013243E+0	9.847835E-1	1.017858E+0	1.002538E+0	9.849067E-1	1.000467E+0	9.710655E-1	9.788781E-1	9.915269E-1	9.279102E-1	9.972690E-1	9.624428E-1	9.745896E-1	9.717273E-1	9.894116E-1	9.675689E-1	9.400001E-1	1.016642E+0	9.899484E-1	9.638187E-1	9.658411E-1	9.986133E-1	1.039082E+0	9.722626E-1	1.010408E+0	9.867996E-1	9.757993E-1	9.479867E-1	9.493781E-1	9.773818E-1	9.626359E-1	1.001581E+0	9.998957E-1	9.572837E-1	9.584109E-1	9.639402E-1	9.586471E-1	9.748069E-1	9.717478E-1	9.756393E-1	1.002989E+0	9.876220E-1	1.009830E+0	1.000091E+0	9.979332E-1	9.445489E-1	9.827924E-1	9.730661E-1	1.031161E+0	9.769433E-1	1.047469E+0
3.000040E+2	9.808131E-1	9.984569E-1	9.914386E-1	9.821482E-1	9.767444E-1	1.033464E+0	1.036010E+0	1.012168E+0	9.772859E-1	9.649148E-1	9.966932E-1	9.864329E-1	9.789687E-1	9.934863E-1	9.922493E-1	1.013805E+0	9.923831E-1	9.649396E-1	1.007036E+0	1.013645E+0	9.972770E-1	9.854363E-1	1.002423E+0	9.711717E-1	9.945185E-1	9.454436E-1	1.013119E+0	9.688416E-1	9.813895E-1	9.904329E-1	9.980002E-1	9.740706E-1	9.909993E-1	9.666498E-1	1.006637E+0	9.578135E-1	9.789394E-1	9.871188E-1	9.966131E-1	9.944094E-1	1.002856E+0	9.886233E-1	9.922827E-1	9.899171E-1	1.012012E+0	9.697064E-1	9.940937E-1	1.012697E+0	9.806472E-1	9.611842E-1	9.884405E-1	9.965598E-1	9.480483E-1	9.789594E-1	9.939241E-1	9.598942E-1	1.040912E+0	1.011333E+0	1.021823E+0	1.000239E+0	9.835153E-1	9.994214E-1	1.033658E+0	1.033371E+0	9.643646E-1	9.831344E-1	9.743211E-1	9.970486E-1	1.007436E+0	9.902989E-1	1.006897E+0	9.655108E-1	9.577537E-1	1.009408E+0	9.974969E-1	1.020833E+0	9.952523E-1	9.682029E-1	9.989229E-1	9.945013E-1	1.007033E+0	9.791417E-1	1.009831E+0	9.565611E-1	9.916858E-1	9.991000E-1	1.004157E+0	9.814090E-1	1.014908E+0	1.022411E+0	1.007884E+0	9.965350E-1	9.854280E-1	9.843144E-1	9.745371E-1	9.991241E-1	9.882551E-1	9.773816E-1	1.002454E+0	1.001222E+0	9.666881E-1	1.001369E+0	9.931183E-1	9.727096E-1	9.914616E-1	1.021880E+0	1.015671E+0	9.531699E-1	9.960695E-1	1.018760E+0	9.811005E-1	1.014235E+0	1.008681E+0	1.034657E+0	1.010016E+0	9.798956E-1	1.011822E+0	1.008423E+0	1.001490E+0	9.863037E-1	9.672753E-1	9.491856E-1	1.007770E+0	9.902690E-1	1.033709E+0	9.735606E-1	9.902950E-1	1.005952E+0	1.010173E+0	9.678150E-1	9.830983E-1	9.654528E-1	1.014729E+0	9.960618E-1	9.801851E-1	1.020146E+0	1.024527E+0	9.910472E-1	9.660702E-1	9.971099E-1	1.014085E+0	1.000183E+0	9.896013E-1	9.464341E-1	9.609689E-1	1.001090E+0	1.006412E+0	1.013748E+0	9.841428E-1	9.766395E-1	9.594710E-1	9.732989E-1	1.000638E+0	1.039628E+0	1.023188E+0	9.782785E-1	1.000809E+0	9.986090E-1	9.779826E-1	1.007560E+0	1.018867E+0	1.010694E+0	1.003238E+0	9.816048E-1	9.269390E-1	1.060774E+0	1.010005E+0	1.013288E+0	9.649982E-1	1.050664E+0	8.749109E-1
