Photon Energy (eV)	#1	#2	#3	#4	#5	#6	#7	#8	#9	#10	#11	#12	#13	#14	#15	#16	#17	#18	#19	#20	#21	#22	#23	#24	#25	#26	#27	#28	#29	#30	#31	#32	#33	#34	#35	#36	#37	#38	#39	#40	#41	#42	#43	#44	#45	#46	#47	#48	#49	#50	#51	#52	#53	#54	#55	#56	#57	#58	#59	#60	#61	#62	#63	#64	#65	#66	#67	#68	#69	#70	#71	#72	#73	#74	#75	#76	#77	#78	#79	#80	#81	#82	#83	#84	#85	#86	#87	#88	#89	#90	#91	#92	#93	#94	#95	#96	#97	#98	#99	#100	#101	#102	#103	#104	#105	#106	#107	#108	#109	#110	#111	#112	#113	#114	#115	#116	#117	#118	#119	#120	#121	#122	#123	#124	#125	#126	#127	#128	#129	#130	#131	#132	#133	#134	#135	#136	#137	#138	#139	#140	#141	#142	#143	#144	#145	#146	#147	#148	#149	#150	#151	#152	#153	#154	#155	#156	#157	#158	#159	#160	#161	#162	#163	#164	#165	#166	#167	#168	#169	#170	#171	#172	
2.790030E+2	-7.075065E-3	-4.440648E-3	-1.150829E-2	8.117844E-3	4.069071E-4	-7.196764E-3	-6.463306E-4	6.793169E-3	3.967320E-3	5.542559E-3	-3.366536E-3	1.977356E-3	-9.360938E-3	-8.847883E-3	5.760131E-3	3.199379E-3	-1.921273E-3	-1.067440E-2	-5.251081E-3	2.317127E-3	-4.135124E-3	-8.008921E-3	-4.426014E-3	-2.496036E-3	-5.825628E-3	-3.499073E-3	-2.900602E-3	2.780478E-3	-8.507374E-3	2.497224E-3	1.095520E-3	-6.206058E-4	3.835241E-5	-3.345637E-3	-2.530769E-3	-2.100655E-3	-1.072757E-2	-9.459264E-4	-3.035903E-3	2.348052E-5	7.815388E-4	4.841887E-3	-2.821468E-3	-1.004852E-3	-9.964819E-4	-7.243105E-3	-8.797279E-3	-2.671016E-3	-2.686832E-3	-4.918183E-3	-4.687216E-3	2.837900E-3	-6.375666E-3	-6.080403E-3	3.721005E-5	7.799609E-3	-7.860575E-3	-1.757835E-3	-3.484971E-3	3.192161E-3	-6.495394E-3	3.766163E-3	-2.936301E-3	6.775585E-3	3.945244E-3	4.371182E-3	1.402438E-3	-6.137746E-3	-2.696140E-3	-6.185677E-3	1.075401E-3	-1.020504E-2	-1.053144E-2	8.650280E-4	-6.380232E-3	2.483347E-3	-7.529559E-3	-4.640509E-3	2.918193E-4	-2.730771E-3	-5.067462E-3	2.535875E-3	8.693441E-3	-2.711725E-3	5.044438E-3	-9.256051E-3	-1.235302E-2	-6.817112E-3	7.410025E-3	-7.846988E-3	8.534226E-4	-5.222346E-3	-1.791043E-3	-7.996506E-3	-1.171870E-2	-9.209492E-4	-1.431058E-2	2.607243E-3	-2.038732E-3	-2.408302E-3	-1.638556E-2	-5.340115E-3	-3.304644E-3	1.193906E-3	3.558184E-3	-1.820204E-3	-1.234090E-3	-1.300157E-3	2.905972E-3	-7.240056E-3	-3.366243E-3	-7.560162E-3	1.847421E-3	-5.158433E-4	-6.090217E-3	-1.956597E-3	-7.320697E-3	-5.456785E-3	8.924329E-3	1.271356E-4	3.109182E-3	-3.155334E-3	8.009014E-4	-4.431276E-4	-1.439516E-4	-1.177590E-3	-2.250502E-3	-4.978084E-4	2.114671E-4	-1.133237E-2	-5.097461E-3	-3.010621E-3	1.300380E-2	-4.303131E-3	-9.764712E-3	-6.819002E-3	-1.272769E-2	-1.192125E-2	-2.074150E-3	-1.505673E-5	7.709615E-3	-1.092896E-2	4.481016E-3	4.410948E-4	-1.089630E-3	-1.407925E-3	-3.924662E-3	-7.726613E-3	-9.638803E-4	1.750649E-3	-2.078071E-3	-6.455594E-3	1.741480E-3	-1.224973E-2	-6.910540E-3	-8.552003E-3	-5.525138E-4	-6.737847E-3	-2.767862E-3	1.046212E-2	3.957785E-3	1.979964E-3	-3.524916E-3	-3.527952E-3	1.122646E-2	-7.612212E-3	-6.250860E-3	-3.618257E-3	6.902139E-3	-1.392576E-3	-4.490483E-3	-8.795651E-5
2.795050E+2	-8.313118E-3	2.168276E-3	1.112300E-4	2.914007E-3	4.573656E-3	-2.927986E-3	-2.480825E-3	-1.842161E-3	-4.567108E-3	-5.139168E-4	-1.522439E-2	-8.024109E-3	2.586038E-3	-4.034179E-3	-2.676977E-3	1.563118E-3	-2.959473E-3	-5.496409E-4	-6.151368E-3	6.140752E-3	-2.729762E-3	-5.110537E-3	5.268978E-3	-3.421271E-3	-1.682797E-3	1.144807E-3	-8.206365E-3	-4.156155E-3	-7.233855E-3	-7.841688E-3	8.661435E-3	-1.442840E-3	4.155870E-3	5.445977E-3	-2.704647E-3	2.151256E-3	-2.365743E-3	3.025455E-4	2.016491E-3	-6.630864E-3	5.888246E-4	1.431601E-3	-1.433284E-3	-1.096399E-2	-1.904420E-3	-3.094999E-4	-4.772722E-3	-2.133058E-3	-9.638558E-3	5.404465E-3	1.293281E-3	9.037168E-4	-1.148646E-2	6.282095E-4	-4.798001E-3	-5.718651E-3	-3.826372E-3	-2.778770E-3	8.670231E-4	-1.095761E-2	-3.405154E-3	-5.895443E-4	-2.343187E-3	-5.009850E-3	7.987747E-4	-5.842072E-3	2.078941E-3	5.061549E-4	5.268981E-3	-5.627581E-3	3.923790E-3	-6.534748E-3	-5.624760E-3	-6.758235E-3	8.619864E-3	-5.976508E-3	-2.255383E-3	-1.814259E-3	8.283890E-4	-1.382995E-3	-3.374568E-3	-6.842495E-3	2.332969E-3	-5.155099E-3	-4.198709E-3	-1.431160E-3	1.622234E-3	2.416355E-3	-5.191733E-3	4.574783E-3	-3.921420E-3	-3.399335E-3	9.027300E-3	1.428551E-3	-1.026822E-2	-6.166136E-3	3.154778E-4	-9.149645E-3	-5.696616E-3	-4.029017E-3	1.869225E-3	1.504458E-3	-1.785498E-3	-1.876728E-3	-6.971154E-3	-1.176690E-3	2.676518E-3	-7.682881E-3	-1.611429E-2	-7.293021E-4	1.497943E-3	8.392730E-3	-4.045565E-3	3.448035E-3	-4.476921E-3	3.744722E-4	-5.749331E-3	4.764334E-3	-1.304832E-3	1.425970E-3	-1.394319E-2	-2.453137E-3	-1.242270E-3	6.642993E-3	3.060533E-3	7.845514E-4	5.730246E-3	-4.104752E-3	-3.900029E-3	-2.930960E-3	-2.262626E-3	1.838342E-3	-1.617491E-5	-3.621245E-3	2.387978E-3	2.857903E-4	1.848060E-4	1.546335E-2	8.106492E-3	-1.155612E-3	-8.263240E-3	9.790813E-4	-9.858688E-3	-6.791751E-3	5.324311E-3	-3.435330E-3	-1.165969E-2	9.834203E-3	-1.389853E-2	-8.815974E-3	-1.141524E-2	-8.195330E-3	2.431739E-3	5.885211E-4	-4.353147E-4	7.553174E-4	-1.256314E-2	-5.438459E-3	-2.946453E-3	-2.377520E-3	-7.111713E-3	9.875019E-4	3.482088E-3	-9.168252E-3	4.988137E-3	1.140288E-3	6.235900E-3	1.052318E-3	-8.492405E-3	-4.609407E-3	-2.692360E-3	-7.906206E-3
2.800020E+2	8.922149E-3	-8.359197E-4	-8.330578E-3	-5.041256E-3	2.718607E-3	5.652812E-4	-3.357776E-3	-1.062259E-3	-1.205202E-2	-5.283573E-4	4.961210E-3	8.898068E-3	-5.020613E-3	8.638639E-3	-2.086383E-3	-4.256047E-3	-4.450170E-4	-6.916565E-3	7.833156E-3	1.291259E-3	-5.920264E-3	-5.159597E-3	1.413487E-3	-5.526415E-4	5.990210E-3	4.295326E-3	4.927219E-3	5.020064E-3	1.223004E-3	-4.264992E-3	-6.904107E-3	-1.996598E-4	1.498893E-3	-2.070989E-3	-1.999257E-3	-3.809632E-3	2.212108E-3	-6.138040E-3	2.702812E-3	-5.953907E-3	4.778214E-3	-2.198844E-4	-3.828715E-3	3.904227E-4	8.299465E-3	-1.769874E-3	7.561850E-4	-1.997861E-5	-3.782739E-3	-2.985308E-4	-2.584644E-3	-1.743588E-3	5.743483E-3	-2.485339E-3	5.538513E-4	4.706680E-4	-2.210551E-3	5.177652E-4	-6.462133E-3	-4.058377E-3	-2.068307E-4	-2.713005E-3	-8.644966E-4	-8.448235E-3	-5.102246E-3	-6.653032E-3	-6.948042E-3	3.475391E-3	-5.076634E-4	-4.237105E-3	-2.199857E-3	1.018258E-2	2.738598E-3	6.386574E-3	-2.589094E-3	-1.250536E-3	-9.247272E-3	7.817951E-3	-6.291236E-3	-5.434648E-3	2.600303E-3	-3.553330E-3	-2.345758E-3	-2.802627E-3	-8.409577E-3	1.694778E-3	-4.698344E-3	-3.585480E-3	-2.388505E-3	1.151418E-3	-5.817396E-3	-3.449807E-3	5.841435E-3	1.378639E-3	-1.746726E-3	-1.501980E-3	1.949314E-3	1.004253E-4	4.907105E-3	5.254635E-3	1.023120E-3	-1.014657E-2	-2.051402E-4	-4.660322E-4	-6.052559E-3	3.671310E-3	2.620947E-3	-4.689803E-3	2.867385E-3	-4.454797E-3	-4.959486E-3	7.419330E-3	1.054184E-3	-7.209479E-3	-1.871303E-3	-3.010633E-3	2.036221E-3	-1.658500E-3	-2.144348E-3	-8.053924E-3	2.971596E-3	-2.495775E-3	-4.045684E-3	-3.966194E-3	-1.042525E-2	-6.365472E-3	-8.350064E-4	3.144468E-3	-8.689628E-3	5.506077E-3	-2.271691E-3	-1.542488E-3	-7.643112E-3	-1.222814E-2	4.024666E-3	1.888062E-3	2.049509E-3	-1.669464E-3	-9.173925E-3	-7.756930E-3	5.221471E-3	-8.662071E-3	-2.409572E-3	5.366031E-3	-5.412783E-3	-6.239053E-3	5.881355E-3	-8.864586E-3	2.724788E-3	-8.005130E-3	-7.383063E-4	-4.376000E-3	-6.025730E-3	1.393893E-3	1.399360E-3	5.420910E-3	-3.192868E-6	-7.647840E-3	6.890158E-4	-7.626419E-4	2.616325E-3	1.408637E-4	-2.163984E-3	1.161842E-2	-9.638362E-3	-1.345307E-3	-3.090128E-3	-6.136448E-4	-3.887537E-3	7.147110E-3	-2.743945E-3	-4.158297E-3
2.805030E+2	-5.295353E-3	-1.772601E-3	9.433147E-3	-4.023859E-3	-6.935357E-3	-1.166320E-3	-1.688049E-3	-6.057931E-3	-1.756802E-3	6.204441E-3	2.681399E-3	-3.529568E-3	7.117366E-3	-5.447738E-3	4.937515E-3	1.231076E-4	5.606007E-3	-2.924311E-3	1.978928E-3	5.659286E-4	-5.096372E-3	4.790279E-3	2.985844E-3	-4.935914E-4	-8.422144E-4	1.134236E-3	-8.766499E-4	1.712428E-3	-2.265972E-3	-2.044073E-3	-4.739008E-3	5.015717E-3	-3.633947E-3	-6.501025E-3	7.886923E-3	2.891728E-3	7.181546E-4	-3.250896E-3	-9.833093E-4	-5.190530E-3	5.678913E-3	-1.752882E-3	-5.347610E-3	7.767964E-3	6.897409E-3	-5.257168E-3	8.207433E-4	-1.402390E-3	3.017705E-3	-9.931315E-3	-2.539867E-3	-1.699586E-3	1.073765E-2	-3.200484E-3	4.471737E-3	2.084240E-3	5.358633E-3	7.271832E-3	-9.776565E-4	3.354840E-4	-1.785017E-3	-5.431966E-3	-6.174646E-3	2.506958E-3	-5.067589E-3	-6.613304E-3	-1.497678E-2	-3.268199E-3	-1.024902E-2	1.559354E-3	3.162641E-3	-1.958734E-3	-3.112453E-3	5.613641E-3	1.437129E-3	-6.776710E-3	-1.489561E-3	-1.071032E-3	1.546720E-3	6.004369E-3	-4.256228E-3	6.656274E-4	4.649708E-3	1.246097E-2	2.445737E-3	-2.238825E-3	-3.083909E-3	7.629585E-3	-7.135900E-3	2.036927E-3	6.324481E-4	1.053391E-2	-5.811827E-3	-1.473716E-2	6.865122E-3	2.588378E-3	7.938161E-3	1.022760E-2	-3.051413E-3	-2.473152E-3	2.770253E-4	1.497752E-3	-5.900935E-3	3.978180E-3	4.511845E-3	-3.743048E-4	5.095848E-3	-3.116862E-3	-7.677997E-3	-2.182584E-3	2.257922E-3	-8.192990E-3	-1.286593E-2	1.526449E-4	-1.056197E-2	-2.999074E-3	2.880564E-3	-2.426347E-3	3.963812E-4	1.074256E-3	1.001566E-2	9.429675E-4	9.884749E-3	3.457476E-3	4.909343E-3	-3.450045E-3	-3.210701E-3	-4.561988E-3	-3.480471E-3	-3.788870E-3	1.860657E-3	4.915445E-4	-8.394608E-3	-1.146365E-3	4.069898E-3	2.195147E-3	9.672940E-3	-6.361004E-3	-2.224434E-3	2.104907E-3	-5.950455E-3	-7.033604E-3	2.093818E-3	2.215684E-3	-5.178547E-3	-3.401034E-3	1.272814E-2	1.193975E-3	4.530485E-3	-5.405708E-3	8.448395E-3	1.917049E-3	-6.853009E-3	-2.755746E-4	-4.313679E-4	3.184336E-3	-8.351455E-3	1.198588E-2	5.186332E-3	2.221319E-3	-6.145729E-3	-5.292151E-3	-2.905913E-3	2.566604E-3	1.095765E-2	-4.531347E-3	2.859133E-3	-1.693247E-2	2.011694E-3	-4.619460E-3	7.199035E-3	-1.555577E-2
2.810050E+2	5.510747E-3	-1.568883E-4	7.296314E-4	-7.268601E-3	6.773523E-3	3.846383E-3	-2.789109E-3	1.196836E-3	1.369860E-2	-5.653476E-3	9.338104E-3	4.256851E-3	3.532640E-5	-2.158683E-3	2.123928E-3	-1.573844E-3	-6.638993E-3	1.566922E-2	4.628226E-3	-6.949709E-3	4.800481E-3	-2.264970E-3	-6.377245E-3	7.910000E-3	5.992398E-4	-6.348109E-3	-2.603580E-3	-1.090503E-3	8.046725E-3	2.738178E-3	-7.793467E-3	2.339600E-4	-2.189346E-3	6.614617E-3	3.954256E-5	7.716670E-3	8.094692E-3	2.149385E-3	9.128084E-3	5.298700E-3	6.202655E-3	5.039762E-3	6.841862E-3	-1.451831E-3	-6.521288E-3	1.138424E-2	-2.953548E-3	5.475814E-3	2.688130E-3	9.876352E-3	7.108942E-3	-1.124703E-3	-3.540578E-3	-2.722829E-3	3.088138E-4	-3.662894E-3	1.723132E-3	1.111326E-3	-3.764359E-4	-2.572016E-3	-4.491129E-3	6.036048E-3	4.219845E-4	1.032991E-2	-1.114196E-2	-1.481751E-3	4.389217E-3	9.750196E-4	8.139363E-3	-8.756342E-4	-3.169308E-3	-1.475335E-3	2.463426E-3	-2.084789E-3	1.947986E-3	-1.476304E-3	1.046799E-2	1.345981E-2	2.664534E-3	6.346286E-3	-7.100951E-3	3.693076E-4	-7.920833E-3	-5.398891E-3	2.131615E-3	4.594092E-3	3.633949E-3	-1.582051E-3	-3.599747E-3	1.700858E-3	1.304275E-2	1.527882E-3	-5.299224E-3	7.715300E-3	3.448646E-3	-1.704270E-3	-4.219039E-3	6.207549E-4	2.832709E-3	4.980510E-3	-3.136692E-3	-1.097698E-3	6.046028E-3	-6.523069E-3	-5.348553E-3	-7.187550E-3	-4.866211E-3	5.718995E-3	7.114606E-3	7.097064E-3	-5.149784E-3	1.144436E-3	-2.453004E-3	-9.054590E-3	-3.118754E-3	-1.051181E-4	5.825220E-3	-2.724503E-3	-4.107711E-3	4.549301E-3	-3.202742E-3	-2.776454E-3	2.141204E-3	-1.726752E-4	7.915789E-3	-7.968866E-3	8.707149E-3	1.094952E-3	2.043444E-3	1.041436E-3	-4.445215E-3	-3.080139E-3	-5.239135E-3	8.691601E-3	-5.269265E-3	7.079977E-3	-8.831755E-4	5.927369E-6	1.138278E-4	-6.648463E-3	4.288762E-3	6.999172E-3	9.940783E-3	-2.666520E-3	1.144790E-3	-8.978678E-4	-6.796411E-3	4.789350E-3	1.064736E-2	-4.765766E-3	-3.336755E-3	1.139309E-2	7.814886E-3	2.872424E-3	4.938769E-3	7.230806E-3	3.211936E-3	-1.305550E-3	-2.422985E-3	6.875311E-3	-5.193157E-3	3.056187E-3	6.450543E-3	-1.938487E-3	7.422968E-3	2.474468E-3	-2.418445E-3	9.327501E-3	2.981155E-3	-4.874160E-3	2.266800E-2	8.546457E-3
2.815020E+2	-2.473275E-3	2.845535E-3	9.196279E-3	4.540344E-3	2.598942E-3	7.462664E-3	7.844449E-3	-6.222883E-3	-3.616648E-3	-1.535625E-3	9.224858E-4	-1.000327E-3	-1.347704E-3	5.667916E-3	-2.188773E-3	5.704505E-3	6.251500E-3	-1.466686E-3	3.225457E-4	8.450665E-3	-5.703627E-4	3.146906E-3	5.040700E-3	7.307288E-3	-1.729859E-4	-1.474125E-3	4.055246E-4	1.506038E-3	2.510469E-3	2.840609E-3	7.212885E-4	-4.785886E-3	1.329440E-3	-5.167402E-3	-6.650209E-3	-9.082802E-3	1.284939E-3	7.201245E-3	-6.406251E-3	3.973550E-3	-7.251283E-3	-5.903066E-3	-1.018045E-2	1.064841E-3	-4.251672E-3	-4.733637E-4	5.489134E-3	1.288859E-3	8.675630E-3	-7.668483E-3	-1.177173E-3	-7.044164E-3	-2.632665E-3	1.183507E-2	-1.129394E-3	8.090407E-3	-1.517024E-3	2.035767E-3	6.961823E-3	5.400220E-3	6.127527E-3	-3.509485E-3	9.664791E-3	-3.104045E-3	3.438324E-3	3.976376E-3	1.820115E-3	-1.181849E-3	1.761162E-3	6.535544E-4	-6.863420E-3	9.253075E-3	1.726720E-3	4.570059E-3	5.214614E-3	1.982096E-4	1.385271E-3	-1.998162E-3	6.300098E-3	4.475696E-3	1.186027E-2	3.787887E-3	-7.848153E-3	1.058311E-3	5.543232E-3	3.115375E-3	4.527411E-3	1.478774E-3	-1.617758E-3	-6.540955E-3	-4.154798E-3	-4.454349E-3	-2.878491E-3	7.100290E-3	5.874234E-3	3.084022E-3	-4.984046E-3	3.803513E-3	2.933116E-3	-1.118143E-2	1.109619E-2	8.238933E-3	-2.820599E-3	6.676839E-3	8.064488E-3	-1.399485E-3	-1.563457E-3	8.874006E-3	1.957841E-3	-6.787228E-3	4.972308E-3	-6.918013E-3	1.375955E-4	2.360018E-3	3.024202E-3	3.205196E-3	8.455006E-3	4.476773E-3	9.405268E-4	1.396033E-4	1.924023E-3	5.038365E-3	-4.187579E-3	-2.544203E-3	4.748929E-3	7.714240E-3	-4.171767E-3	-4.047260E-3	1.685969E-4	2.822287E-3	6.116786E-4	-4.637009E-3	9.432797E-3	2.892258E-3	3.802703E-3	5.416566E-4	1.969530E-3	-8.555860E-4	1.914206E-3	1.828929E-2	1.373515E-3	4.724124E-3	1.905618E-3	4.559309E-3	-4.511771E-3	9.248733E-3	3.322273E-3	-3.857769E-3	-3.561723E-3	1.767946E-2	-1.559030E-3	-5.431879E-3	1.403885E-3	9.019409E-3	3.162435E-4	-1.064355E-2	2.525441E-3	-1.203537E-3	8.699751E-3	-4.012072E-3	7.712289E-3	-6.997412E-4	-3.777442E-3	-9.619817E-3	-1.816854E-2	4.207047E-3	-6.480825E-4	6.450758E-3	-6.215948E-3	-3.260101E-3	-1.070431E-2	7.374240E-3
2.820060E+2	5.676489E-3	5.777505E-3	-3.343302E-3	-7.177589E-3	-1.054308E-2	-4.011396E-3	3.826678E-3	2.156174E-3	1.322714E-2	-3.983614E-3	3.287258E-3	-1.868122E-3	8.488003E-3	-2.747573E-3	-2.143027E-3	-1.449548E-3	-3.968851E-3	3.263024E-3	-4.800217E-3	3.649106E-3	6.629869E-3	9.929169E-3	2.813623E-3	-2.837719E-3	-5.221187E-3	-6.246865E-3	9.937330E-3	-8.506370E-3	2.576317E-3	8.655731E-3	4.281648E-3	3.948687E-4	5.145699E-4	-3.643898E-3	3.937953E-3	-8.310955E-3	4.437723E-3	-1.961782E-3	-1.143340E-3	-6.024064E-3	2.118744E-3	-7.451830E-3	3.875591E-3	-4.585291E-3	9.036569E-4	6.619003E-3	6.750217E-4	-8.155063E-4	1.292459E-2	8.424630E-3	5.731101E-3	-3.578862E-3	3.143861E-3	5.033207E-3	-8.019692E-3	-7.427170E-3	-4.818503E-3	-6.285189E-3	2.461507E-3	9.818842E-3	1.347223E-2	-2.774153E-3	2.087600E-3	-3.362610E-4	1.121811E-2	7.859093E-3	-3.499762E-3	1.873067E-3	-1.449718E-3	6.428736E-3	4.517807E-3	-2.097543E-3	4.281704E-3	-2.791007E-3	-5.064141E-3	2.621365E-3	3.741309E-3	-9.384194E-3	2.507151E-6	-4.142496E-3	-5.278990E-3	-2.000207E-3	-3.971350E-3	-5.002922E-4	-6.023317E-3	7.779728E-4	3.794253E-3	-2.182054E-3	-3.493432E-3	1.847340E-3	3.171325E-3	7.731398E-3	1.051987E-3	6.421443E-3	3.592261E-3	5.154123E-3	7.735015E-3	-4.649416E-3	-2.346544E-3	9.794828E-3	8.779887E-3	3.657098E-3	-4.417165E-3	4.548705E-3	4.287984E-3	3.538512E-3	-3.948901E-3	4.359910E-3	3.516778E-3	1.374636E-3	2.165582E-3	8.151757E-3	1.080592E-2	9.702233E-3	4.797781E-3	-7.633424E-4	-7.146006E-4	7.688349E-3	-1.528500E-3	-2.082720E-3	-1.417872E-3	6.984700E-3	-1.364450E-3	-8.044792E-4	-1.410310E-2	-2.098912E-3	5.619917E-3	5.288886E-3	5.118649E-3	1.186445E-3	8.658314E-3	1.013783E-2	-5.046503E-3	3.792929E-3	1.042916E-2	5.965489E-4	-2.618154E-3	-8.167790E-4	2.816512E-3	5.732375E-4	2.913621E-3	4.753472E-3	-3.252708E-3	-5.311579E-3	-2.000083E-3	1.499454E-4	-1.085998E-2	2.565140E-3	4.894711E-4	-1.161814E-3	2.649885E-3	2.797535E-3	1.438630E-3	-4.216344E-4	-5.330973E-3	-2.511604E-3	4.257454E-3	8.976879E-3	6.752217E-4	-8.096241E-3	-9.983192E-3	3.292472E-3	3.458212E-3	-2.388819E-4	-8.711469E-3	4.261093E-3	5.279324E-3	5.003756E-3	-1.525759E-3	2.041371E-2	-4.754866E-3	3.521851E-4
2.825060E+2	3.047426E-3	-3.585257E-3	3.711885E-3	7.939111E-3	4.067993E-4	3.428138E-3	-7.090379E-4	5.039056E-3	-8.900487E-3	4.679882E-4	-2.599530E-3	-7.101490E-4	-2.497478E-3	8.929501E-3	-3.726413E-3	-3.310671E-3	4.076100E-3	3.599355E-3	1.439809E-3	-1.546513E-2	7.021535E-3	2.677671E-3	-6.719373E-3	-5.416029E-3	7.155363E-3	1.099380E-2	-6.828754E-4	2.734019E-3	3.650685E-3	-2.580987E-3	4.676691E-3	1.404446E-3	-1.713832E-3	8.668358E-3	2.020462E-3	1.054439E-2	-3.654301E-3	2.643468E-3	-2.278584E-3	1.450363E-2	-1.289761E-2	4.014412E-3	1.289407E-2	8.782739E-3	-2.426669E-3	-2.950236E-3	8.782466E-3	2.772755E-4	-1.119792E-2	-8.889352E-4	-3.144424E-3	1.144929E-2	4.410370E-3	-3.007434E-3	8.575474E-3	-1.636209E-3	1.315126E-2	-1.148955E-4	1.010843E-3	-1.158702E-3	-3.216236E-3	5.215942E-3	1.442550E-4	-2.714066E-3	1.911339E-3	4.383508E-3	1.573387E-2	3.758161E-3	-2.669620E-4	8.284353E-3	-4.470539E-4	2.835742E-3	8.058201E-3	-5.801270E-3	-3.186126E-3	1.017714E-2	4.927205E-3	-2.369602E-3	-5.342832E-3	-3.135440E-3	1.061763E-2	5.037335E-3	6.409977E-3	3.049358E-3	3.466582E-3	2.743818E-3	6.557422E-3	2.641983E-3	1.601705E-2	3.076618E-3	-3.806334E-3	-3.267349E-3	-1.401373E-4	-1.310553E-3	3.953381E-3	-5.331883E-4	5.575697E-3	-3.560474E-3	2.460375E-3	6.192495E-5	-3.523200E-3	1.686146E-3	1.238795E-2	-7.531801E-3	-2.050236E-3	4.748412E-3	1.219347E-3	-2.163207E-3	5.429706E-3	1.292227E-2	2.581758E-3	-2.437089E-3	5.519386E-3	1.116981E-3	1.829718E-2	5.255096E-3	-5.412382E-3	-4.663321E-3	-1.175847E-3	2.820380E-3	5.433389E-4	-2.085333E-3	-1.986870E-3	-2.169790E-3	4.037705E-3	1.256209E-2	-9.589335E-3	3.683502E-3	8.527972E-3	7.495960E-3	2.946342E-3	-1.974630E-4	3.902937E-3	5.922092E-3	-9.680429E-3	-5.768181E-3	2.352234E-3	6.154808E-3	5.214706E-4	-5.391376E-3	-7.293289E-3	9.168786E-3	-2.900267E-3	2.187731E-3	1.172371E-2	5.982532E-3	1.130898E-2	2.066300E-3	3.203672E-5	8.724285E-3	8.029119E-3	8.351128E-3	-1.951880E-3	-9.273084E-4	6.453824E-3	5.115788E-3	1.147547E-2	1.370479E-3	-7.113021E-3	-4.310279E-3	1.414739E-2	-3.465095E-3	-1.018588E-3	1.030837E-2	1.923152E-3	1.405970E-3	-1.966842E-3	-6.699619E-4	8.226660E-3	-8.805112E-3	-4.481064E-3	1.143535E-2
2.830040E+2	2.417142E-3	6.570263E-3	-1.961115E-3	1.034859E-2	6.147985E-3	1.807459E-2	6.220449E-3	8.794088E-3	-1.350081E-4	5.813227E-3	6.378376E-3	9.484437E-3	-1.425435E-3	2.863154E-3	1.712317E-2	7.220735E-3	1.222964E-2	3.936955E-3	9.258303E-3	6.049113E-3	-3.772455E-3	6.859154E-3	1.816388E-2	-7.318917E-3	5.767359E-3	2.125732E-5	7.066310E-3	3.938074E-3	1.335389E-2	7.996315E-3	1.292818E-2	2.004247E-2	5.592581E-3	1.493448E-3	1.232335E-2	6.485580E-3	4.507620E-3	5.863654E-3	4.898610E-3	1.275403E-2	5.437718E-3	1.243633E-2	8.575307E-3	1.740578E-2	6.798971E-3	1.025620E-2	1.206053E-2	1.379374E-2	1.985849E-2	2.228620E-2	6.449921E-3	1.622834E-2	1.652105E-2	-5.774988E-3	1.290540E-2	1.214665E-2	1.953100E-2	4.445319E-3	1.695791E-2	1.592358E-2	1.229730E-3	3.490447E-3	1.288716E-2	1.558295E-2	2.319268E-3	4.740960E-3	7.881766E-4	1.330971E-2	9.287361E-3	1.233581E-2	8.330704E-3	6.283294E-3	8.547281E-3	1.535257E-2	1.242360E-2	1.541715E-2	5.362540E-3	1.230170E-2	1.145977E-2	5.342553E-3	7.556330E-3	2.870402E-3	9.903364E-3	2.580334E-3	8.068992E-3	3.107806E-3	2.994460E-3	6.017926E-3	2.713971E-2	5.830864E-5	4.837110E-3	3.184797E-3	1.049314E-2	1.613224E-2	1.692275E-2	1.071198E-2	-9.354430E-4	3.812391E-3	1.542474E-2	1.459922E-2	1.755252E-2	1.377607E-2	6.188467E-3	8.334227E-3	1.472992E-2	8.445448E-3	2.368726E-2	2.026288E-3	1.272353E-2	-2.379764E-3	1.240693E-2	1.248872E-2	-3.259884E-3	1.875611E-2	6.506539E-3	1.298633E-2	1.109463E-2	6.883459E-3	1.010057E-2	3.175843E-3	3.330041E-3	6.856119E-3	6.746658E-3	-1.909060E-4	-5.367214E-4	1.442203E-3	1.961637E-2	1.753288E-2	9.335308E-4	9.602975E-3	8.325631E-3	1.008918E-2	1.035489E-2	-6.602528E-3	-7.708202E-3	4.375773E-3	2.911842E-2	1.326170E-2	1.481664E-2	3.025479E-3	1.509280E-2	1.606066E-2	5.745284E-3	1.865406E-3	4.662081E-3	2.402859E-2	1.425051E-2	7.564021E-4	6.008919E-3	4.803754E-3	2.025173E-2	7.990932E-3	9.752677E-3	6.432735E-3	1.456409E-2	1.010155E-2	-2.628174E-3	9.808081E-3	5.896851E-3	1.005747E-2	1.470070E-2	1.675910E-2	5.040700E-3	8.341889E-3	2.143499E-2	9.176623E-3	2.617490E-3	4.392811E-4	1.456717E-2	-5.506155E-3	1.789180E-2	1.188364E-2
2.835020E+2	2.331935E-2	2.154956E-2	1.526248E-2	2.053204E-2	1.627801E-2	8.204708E-3	2.479440E-2	4.694400E-2	1.797222E-2	3.486161E-2	1.931405E-2	2.410506E-2	2.116968E-2	1.825456E-2	2.410420E-2	2.747740E-2	2.025566E-2	1.946638E-2	8.668137E-3	1.448400E-2	2.371087E-2	1.636261E-2	2.400991E-2	1.979065E-2	2.610891E-2	2.731997E-2	1.705020E-2	1.865040E-2	2.316361E-2	3.732732E-2	1.689587E-2	2.455237E-2	3.408072E-2	1.614864E-2	1.486758E-2	7.422825E-3	1.819339E-2	1.406223E-2	1.280515E-2	2.562573E-2	3.969591E-2	2.497266E-2	2.646847E-2	3.021723E-2	1.601489E-2	3.751229E-2	1.459977E-2	1.788113E-2	2.802294E-2	2.095809E-2	2.231191E-2	2.442119E-2	1.593894E-2	2.335944E-2	2.034063E-2	1.964994E-2	1.027040E-2	2.517048E-2	1.997494E-2	2.521438E-2	2.643167E-2	1.364774E-2	2.498078E-2	3.712584E-2	1.924143E-2	2.625182E-2	3.675501E-2	2.136525E-2	1.958278E-2	2.152587E-2	2.571177E-2	2.688514E-2	1.473811E-2	3.597176E-2	1.667795E-2	2.551128E-2	1.906828E-2	1.024631E-2	2.197560E-2	1.871820E-2	2.099101E-2	3.387779E-2	2.676659E-2	3.147193E-2	1.509806E-2	2.206209E-2	1.681739E-2	2.383147E-2	1.370978E-2	2.425430E-2	1.423280E-2	1.744387E-2	1.152785E-2	2.175110E-2	2.843433E-2	1.864403E-2	3.226562E-2	2.387964E-2	9.198392E-3	2.290209E-2	1.704949E-2	1.398312E-2	2.573671E-2	1.461867E-2	2.673355E-2	1.785657E-2	4.406707E-2	1.151964E-2	2.473376E-2	1.980019E-2	1.641731E-2	2.202844E-2	2.553348E-2	2.069362E-2	1.823349E-2	1.735947E-2	1.043376E-2	3.646357E-2	2.138823E-2	1.339668E-2	1.672716E-2	1.653830E-2	2.957335E-2	2.374715E-2	2.618141E-2	1.043594E-2	2.571497E-2	2.212937E-2	8.007328E-3	3.069884E-2	2.164112E-2	2.964310E-2	2.108465E-2	2.485707E-2	3.203400E-3	2.456088E-2	2.863785E-2	1.216989E-2	2.368088E-2	2.854906E-2	2.011439E-2	8.883455E-3	1.436753E-2	1.160468E-2	9.032082E-3	2.132161E-2	1.784601E-2	2.535779E-2	2.185507E-2	2.430941E-2	1.020684E-2	2.502092E-2	2.144054E-2	2.252956E-2	1.565500E-2	1.948489E-2	2.336061E-2	2.057818E-2	1.140147E-2	1.751220E-2	2.910203E-2	2.921539E-2	1.914373E-2	1.974891E-2	2.708701E-2	6.833920E-3	2.963091E-2	3.095983E-2	2.292562E-2	2.580909E-2	3.946324E-2	2.027529E-2
2.840000E+2	5.716538E-2	4.903748E-2	5.810959E-2	3.235875E-2	4.864535E-2	3.901359E-2	3.145947E-2	4.541659E-2	6.167434E-2	5.255483E-2	4.440309E-2	5.347653E-2	4.701637E-2	5.549100E-2	6.024191E-2	5.404899E-2	5.461967E-2	4.568892E-2	4.943347E-2	3.861984E-2	5.538253E-2	7.286611E-2	3.901139E-2	4.580893E-2	7.073408E-2	5.330164E-2	4.453262E-2	4.114044E-2	4.240805E-2	4.508457E-2	5.536644E-2	5.452800E-2	5.202357E-2	4.961415E-2	4.873002E-2	5.056550E-2	5.458908E-2	4.669102E-2	3.061318E-2	4.899550E-2	4.853228E-2	3.815065E-2	4.520427E-2	5.825183E-2	4.659409E-2	4.737094E-2	4.976211E-2	4.279269E-2	4.377464E-2	5.283906E-2	4.135564E-2	5.031470E-2	4.499116E-2	4.574494E-2	5.262631E-2	4.320338E-2	5.806772E-2	5.657438E-2	4.421065E-2	5.229218E-2	6.736953E-2	3.896162E-2	5.221804E-2	5.395041E-2	5.642000E-2	5.363465E-2	3.469933E-2	4.262327E-2	4.677493E-2	6.153966E-2	5.512802E-2	5.811640E-2	5.952140E-2	4.454547E-2	5.479900E-2	5.628960E-2	5.136905E-2	3.809662E-2	4.649679E-2	5.115981E-2	4.596729E-2	3.899298E-2	5.747636E-2	3.806023E-2	4.002789E-2	5.367246E-2	4.619730E-2	5.900802E-2	4.210935E-2	2.661352E-2	4.918707E-2	5.075839E-2	3.328259E-2	5.874042E-2	7.831607E-2	4.193096E-2	5.710282E-2	5.142951E-2	4.964398E-2	3.989825E-2	4.911346E-2	3.471020E-2	6.264846E-2	6.064752E-2	5.144238E-2	4.677769E-2	4.838054E-2	4.166073E-2	3.736788E-2	5.160417E-2	4.192761E-2	4.364839E-2	6.610560E-2	6.058178E-2	5.068844E-2	4.837990E-2	4.887248E-2	5.988788E-2	4.905187E-2	6.247177E-2	5.716965E-2	4.655985E-2	6.127326E-2	4.967013E-2	4.559143E-2	5.606021E-2	5.123560E-2	4.946398E-2	4.249541E-2	6.000611E-2	5.142929E-2	6.055568E-2	5.867542E-2	2.903783E-2	5.021334E-2	5.515318E-2	4.979192E-2	5.716863E-2	6.489019E-2	6.376643E-2	4.681600E-2	5.570099E-2	7.222076E-2	4.066759E-2	3.992829E-2	5.674311E-2	4.909315E-2	5.273617E-2	5.602895E-2	4.157621E-2	4.799478E-2	4.131629E-2	6.634840E-2	5.417658E-2	5.498381E-2	3.804566E-2	4.527915E-2	4.337717E-2	4.838337E-2	6.342888E-2	5.777142E-2	3.068791E-2	6.440546E-2	6.552321E-2	5.930257E-2	5.669787E-2	4.889428E-2	5.966571E-2	5.513607E-2	4.602059E-2	6.832069E-2	3.284179E-2
2.841030E+2	5.471016E-2	7.694100E-2	6.433021E-2	5.287720E-2	3.032089E-2	7.893874E-2	4.513039E-2	5.512314E-2	5.022426E-2	7.289620E-2	5.094566E-2	6.838609E-2	5.481820E-2	5.712568E-2	4.967400E-2	7.946572E-2	6.474396E-2	5.497693E-2	6.832769E-2	5.387760E-2	5.865153E-2	5.346539E-2	6.483537E-2	5.761298E-2	5.176566E-2	7.410945E-2	7.334992E-2	5.528906E-2	4.741121E-2	6.517788E-2	4.047067E-2	6.707742E-2	6.637414E-2	4.096538E-2	6.080305E-2	5.379595E-2	4.496790E-2	4.186631E-2	4.729247E-2	6.289831E-2	5.036978E-2	5.613069E-2	6.927432E-2	5.568899E-2	5.389132E-2	5.505197E-2	6.178139E-2	5.896795E-2	5.311306E-2	7.174099E-2	4.696972E-2	5.113964E-2	6.178044E-2	5.646949E-2	5.021325E-2	6.310252E-2	4.678948E-2	7.448918E-2	6.328172E-2	5.860542E-2	6.213401E-2	5.745651E-2	5.632179E-2	6.502430E-2	5.312521E-2	6.679236E-2	7.157867E-2	7.153185E-2	5.974975E-2	6.783812E-2	4.871540E-2	5.819255E-2	6.580374E-2	6.021221E-2	6.072122E-2	6.646865E-2	5.963499E-2	5.867992E-2	7.370354E-2	6.845460E-2	7.152341E-2	6.725907E-2	7.560277E-2	7.367725E-2	6.290667E-2	7.487622E-2	4.617511E-2	5.755427E-2	5.403826E-2	6.648047E-2	6.654705E-2	6.358959E-2	6.473173E-2	4.244106E-2	5.949836E-2	6.276283E-2	7.153163E-2	5.640251E-2	6.652587E-2	7.129336E-2	7.094551E-2	6.420073E-2	5.141049E-2	7.253384E-2	7.162877E-2	6.763446E-2	5.520258E-2	5.625382E-2	6.793334E-2	6.271253E-2	7.387231E-2	5.902611E-2	5.731651E-2	5.975404E-2	6.354197E-2	4.578589E-2	5.599041E-2	5.912876E-2	6.670410E-2	7.471011E-2	4.776227E-2	6.734837E-2	6.129604E-2	6.653638E-2	4.727981E-2	6.677800E-2	5.297787E-2	6.863981E-2	5.788736E-2	6.449524E-2	7.357079E-2	5.007239E-2	6.597860E-2	5.322751E-2	4.832281E-2	5.050050E-2	5.745800E-2	5.207612E-2	8.059173E-2	6.004522E-2	7.244952E-2	6.259447E-2	5.567432E-2	6.803357E-2	6.182477E-2	6.552723E-2	5.345338E-2	5.953340E-2	5.695589E-2	6.823810E-2	5.933295E-2	6.184765E-2	5.319408E-2	6.429894E-2	6.088815E-2	4.455981E-2	7.124580E-2	5.424706E-2	5.627754E-2	6.661107E-2	6.491274E-2	5.603692E-2	7.354189E-2	4.732273E-2	7.567218E-2	5.770254E-2	6.307126E-2	6.379601E-2	7.586068E-2	6.731644E-2	6.490510E-2	6.756944E-2
2.842030E+2	6.056622E-2	4.986408E-2	5.827798E-2	3.915551E-2	8.308594E-2	5.616886E-2	4.518367E-2	7.962054E-2	5.121835E-2	7.857159E-2	6.699446E-2	9.344973E-2	6.865927E-2	5.893456E-2	6.430470E-2	6.522571E-2	6.232207E-2	5.432668E-2	7.984543E-2	5.415494E-2	5.756706E-2	6.846255E-2	6.355050E-2	6.188392E-2	6.639486E-2	5.025356E-2	5.804223E-2	5.902963E-2	5.809140E-2	6.320832E-2	6.643178E-2	5.163741E-2	5.022070E-2	7.644825E-2	7.492006E-2	7.156439E-2	4.687846E-2	5.992534E-2	6.284816E-2	8.188979E-2	7.021323E-2	5.482686E-2	6.459193E-2	6.636128E-2	8.165568E-2	8.360810E-2	5.320019E-2	7.331590E-2	6.172435E-2	5.756796E-2	6.028593E-2	6.978777E-2	9.778074E-2	5.251994E-2	6.879050E-2	6.610515E-2	6.637127E-2	6.729600E-2	5.862630E-2	5.888796E-2	5.713731E-2	6.244864E-2	7.470178E-2	7.728392E-2	5.115841E-2	4.400688E-2	6.805107E-2	6.387369E-2	5.967746E-2	7.419490E-2	5.220931E-2	6.759191E-2	7.612228E-2	7.576232E-2	6.266724E-2	7.281517E-2	6.522743E-2	4.702063E-2	7.194509E-2	6.033638E-2	8.391444E-2	8.030635E-2	7.025521E-2	7.497190E-2	6.596948E-2	8.335103E-2	6.994966E-2	7.552306E-2	7.321199E-2	7.152324E-2	5.890463E-2	6.753264E-2	5.997981E-2	8.223758E-2	6.730672E-2	5.018832E-2	6.814593E-2	5.417938E-2	6.487496E-2	6.669577E-2	7.555774E-2	8.533275E-2	7.272735E-2	5.572318E-2	6.668645E-2	5.213105E-2	6.406242E-2	7.131286E-2	6.590957E-2	7.187032E-2	5.811601E-2	5.573768E-2	7.245571E-2	6.435912E-2	7.685963E-2	5.369764E-2	5.709461E-2	8.158746E-2	6.343077E-2	5.976327E-2	6.443135E-2	7.411060E-2	5.359266E-2	5.971153E-2	6.396309E-2	4.650031E-2	7.417874E-2	5.988464E-2	6.749022E-2	6.745738E-2	7.593916E-2	8.107981E-2	6.622152E-2	6.711194E-2	5.818827E-2	5.316575E-2	7.156933E-2	6.840130E-2	5.970623E-2	7.462970E-2	5.430814E-2	6.892359E-2	6.715408E-2	4.854819E-2	7.630301E-2	7.167368E-2	5.719316E-2	7.009838E-2	6.586296E-2	6.391050E-2	4.982142E-2	6.625763E-2	5.414606E-2	5.430238E-2	6.508299E-2	4.650960E-2	5.881822E-2	5.523839E-2	5.497303E-2	6.485908E-2	5.858416E-2	6.217842E-2	7.047309E-2	7.098775E-2	7.229472E-2	8.505200E-2	6.601536E-2	7.475620E-2	8.093157E-2	6.375741E-2	5.743846E-2	6.877687E-2
2.843040E+2	7.258791E-2	8.404461E-2	7.235431E-2	7.918258E-2	9.447355E-2	8.479570E-2	8.889892E-2	1.077553E-1	7.635785E-2	1.060805E-1	5.493302E-2	8.539932E-2	8.283873E-2	6.249418E-2	7.924213E-2	9.466311E-2	8.673993E-2	7.358045E-2	8.127335E-2	7.123829E-2	7.559228E-2	8.968438E-2	7.146695E-2	8.771704E-2	1.038132E-1	8.113797E-2	8.862934E-2	9.397285E-2	7.062730E-2	7.784182E-2	6.929573E-2	7.445939E-2	6.502517E-2	7.705060E-2	7.958835E-2	8.335744E-2	9.129724E-2	7.748674E-2	8.283286E-2	8.951767E-2	6.917894E-2	8.116206E-2	8.879942E-2	8.450147E-2	6.938438E-2	8.886782E-2	7.411551E-2	9.112130E-2	9.295940E-2	9.649297E-2	7.653594E-2	7.220024E-2	7.742397E-2	8.720168E-2	9.026037E-2	7.343682E-2	7.477056E-2	8.607101E-2	8.654636E-2	9.981613E-2	7.268806E-2	7.804128E-2	8.855555E-2	8.606145E-2	1.139678E-1	8.121934E-2	8.313898E-2	8.732989E-2	6.611966E-2	9.155811E-2	1.053231E-1	7.565667E-2	7.239906E-2	8.815989E-2	9.419643E-2	7.171761E-2	9.040503E-2	7.580573E-2	9.018974E-2	9.503874E-2	7.423855E-2	8.054425E-2	9.012951E-2	9.214029E-2	7.512319E-2	9.645027E-2	7.662652E-2	7.473203E-2	8.262124E-2	7.106636E-2	7.234976E-2	9.175313E-2	8.624693E-2	6.722210E-2	1.032830E-1	7.116943E-2	8.031341E-2	9.090851E-2	8.180228E-2	9.176472E-2	8.424275E-2	8.810416E-2	7.963984E-2	7.932523E-2	7.484628E-2	8.123074E-2	7.864487E-2	7.776388E-2	1.022895E-1	8.219503E-2	7.185258E-2	8.296834E-2	8.185193E-2	8.520110E-2	8.131442E-2	7.691210E-2	9.221192E-2	7.370109E-2	8.577641E-2	7.260804E-2	8.339208E-2	8.965716E-2	9.220337E-2	7.115680E-2	8.309902E-2	7.573353E-2	8.011106E-2	7.349477E-2	9.695734E-2	8.094146E-2	9.409840E-2	9.683477E-2	1.038878E-1	7.592239E-2	1.029860E-1	7.384550E-2	8.945182E-2	1.037542E-1	7.978640E-2	9.254499E-2	9.404407E-2	9.560740E-2	8.629131E-2	7.603953E-2	8.440217E-2	9.429855E-2	8.394263E-2	7.081492E-2	7.257814E-2	8.593638E-2	7.704739E-2	6.926068E-2	7.881605E-2	8.290375E-2	8.512451E-2	7.430018E-2	8.480219E-2	9.263359E-2	9.541385E-2	8.718283E-2	8.771102E-2	9.923455E-2	1.038492E-1	1.011328E-1	8.214915E-2	7.603999E-2	9.481082E-2	9.503665E-2	9.416552E-2	7.868881E-2	9.842110E-2	1.077808E-1
2.844030E+2	1.206199E-1	1.272867E-1	1.215388E-1	1.194873E-1	1.134251E-1	1.421633E-1	1.190669E-1	1.301309E-1	1.176086E-1	1.305337E-1	1.114308E-1	1.153784E-1	1.042449E-1	1.210627E-1	1.131981E-1	1.466754E-1	1.134205E-1	1.190289E-1	1.190996E-1	1.116214E-1	1.256046E-1	1.196885E-1	1.234290E-1	1.291996E-1	1.263365E-1	1.082011E-1	1.500863E-1	1.222390E-1	1.493270E-1	1.007319E-1	1.338420E-1	1.188137E-1	9.728188E-2	1.185001E-1	1.058976E-1	1.171999E-1	1.280474E-1	1.227283E-1	1.334450E-1	1.499821E-1	1.168975E-1	1.288155E-1	1.475289E-1	1.145559E-1	1.412885E-1	1.430194E-1	1.266493E-1	1.289832E-1	1.153162E-1	1.219919E-1	1.281631E-1	1.385205E-1	1.340097E-1	1.325610E-1	1.281612E-1	1.252711E-1	1.410853E-1	1.272532E-1	8.244806E-2	1.225158E-1	1.171396E-1	1.227649E-1	1.094121E-1	1.129777E-1	1.260374E-1	9.545543E-2	1.238678E-1	1.038228E-1	1.308520E-1	1.381678E-1	1.401952E-1	1.188337E-1	1.408482E-1	1.349261E-1	1.158808E-1	1.409289E-1	1.450569E-1	1.408344E-1	1.142396E-1	1.084140E-1	1.265575E-1	1.197094E-1	1.381028E-1	1.278969E-1	1.156123E-1	1.359238E-1	1.107126E-1	1.405133E-1	1.331469E-1	1.058202E-1	1.288175E-1	1.276714E-1	1.139927E-1	1.257821E-1	1.177811E-1	1.292196E-1	1.247503E-1	1.378018E-1	1.251825E-1	1.266464E-1	1.139905E-1	1.392587E-1	1.368714E-1	1.154518E-1	1.397773E-1	1.157562E-1	1.191257E-1	1.352779E-1	1.237170E-1	1.268085E-1	1.093673E-1	1.055878E-1	1.072164E-1	1.520636E-1	1.143111E-1	1.146669E-1	1.129060E-1	1.115897E-1	1.156145E-1	1.203745E-1	1.272111E-1	9.855676E-2	1.395309E-1	1.400634E-1	1.431746E-1	1.219750E-1	1.422049E-1	1.033045E-1	1.222758E-1	1.179060E-1	1.166843E-1	1.165552E-1	1.117858E-1	1.174666E-1	1.334304E-1	1.225689E-1	1.379462E-1	1.254003E-1	1.349905E-1	1.380656E-1	1.256063E-1	1.228153E-1	1.310906E-1	1.251113E-1	1.215401E-1	1.422151E-1	1.174610E-1	1.348068E-1	1.167717E-1	1.197695E-1	1.345735E-1	1.281898E-1	1.344998E-1	1.450683E-1	1.293615E-1	1.359817E-1	9.488030E-2	1.086342E-1	1.269513E-1	1.183250E-1	1.335205E-1	1.242340E-1	1.204938E-1	1.310108E-1	1.297464E-1	1.378965E-1	1.269174E-1	1.281543E-1	1.344583E-1	9.725828E-2	1.100995E-1	8.942956E-2
2.845030E+2	1.802926E-1	1.895609E-1	1.641989E-1	1.707057E-1	1.873661E-1	1.642467E-1	1.802835E-1	1.709011E-1	1.729785E-1	1.446482E-1	1.732397E-1	2.072291E-1	1.906982E-1	1.830670E-1	1.812965E-1	1.624724E-1	1.721707E-1	1.852762E-1	1.877158E-1	1.838308E-1	1.899334E-1	1.906623E-1	1.797140E-1	1.570983E-1	1.668385E-1	1.923389E-1	1.701404E-1	1.907131E-1	1.905614E-1	1.798598E-1	1.724856E-1	1.867470E-1	1.656729E-1	1.452124E-1	1.668457E-1	1.712526E-1	1.854354E-1	1.578891E-1	1.677898E-1	1.894869E-1	1.859576E-1	1.835406E-1	1.833789E-1	1.791972E-1	1.875435E-1	2.037082E-1	1.602938E-1	1.867000E-1	1.745777E-1	1.667143E-1	2.018385E-1	1.956863E-1	1.924807E-1	1.797106E-1	1.906524E-1	1.849905E-1	1.640896E-1	2.025727E-1	1.738569E-1	1.887560E-1	1.811400E-1	1.607759E-1	1.812042E-1	1.585520E-1	2.044659E-1	1.821186E-1	1.664323E-1	1.647857E-1	1.786467E-1	1.746434E-1	1.850523E-1	2.056715E-1	1.943897E-1	1.644988E-1	1.704475E-1	2.035909E-1	1.885051E-1	1.964527E-1	1.964960E-1	1.878514E-1	2.000470E-1	1.836597E-1	1.997881E-1	1.873323E-1	1.708156E-1	1.939457E-1	1.731009E-1	1.731645E-1	1.613900E-1	1.691279E-1	1.763442E-1	1.605691E-1	1.934211E-1	1.741478E-1	2.173996E-1	1.780641E-1	2.089817E-1	1.751378E-1	1.703990E-1	1.750953E-1	1.974487E-1	2.025425E-1	1.680823E-1	1.892922E-1	1.811118E-1	2.029522E-1	1.817598E-1	1.871529E-1	2.041410E-1	1.624577E-1	1.949370E-1	1.559080E-1	1.918174E-1	1.797606E-1	1.736963E-1	1.797635E-1	1.753020E-1	1.701848E-1	1.653927E-1	1.874425E-1	1.844478E-1	1.736758E-1	1.928439E-1	1.900564E-1	1.714541E-1	1.517358E-1	1.912761E-1	1.900023E-1	2.019278E-1	1.926922E-1	2.107857E-1	2.020170E-1	1.516180E-1	1.848411E-1	1.828455E-1	1.862600E-1	2.008147E-1	1.630716E-1	1.902829E-1	1.817627E-1	1.845129E-1	1.980365E-1	2.063536E-1	2.027615E-1	2.067315E-1	1.969801E-1	1.611097E-1	1.909628E-1	1.663104E-1	1.739146E-1	2.005520E-1	1.736285E-1	1.894920E-1	1.955037E-1	2.089319E-1	1.682657E-1	1.782508E-1	1.787542E-1	2.054282E-1	1.608645E-1	2.243847E-1	1.887477E-1	1.727402E-1	1.633074E-1	1.943094E-1	1.652563E-1	1.698966E-1	1.827517E-1	2.139136E-1	1.664113E-1	1.611667E-1	2.075254E-1
2.846030E+2	2.753850E-1	2.510166E-1	2.870469E-1	3.002352E-1	2.934272E-1	2.957760E-1	3.047824E-1	2.702887E-1	3.081308E-1	2.703219E-1	2.577091E-1	3.014606E-1	2.562087E-1	2.908271E-1	2.666580E-1	2.609601E-1	2.655947E-1	2.640779E-1	2.804206E-1	2.797828E-1	2.650759E-1	2.629099E-1	2.530238E-1	2.801429E-1	2.731107E-1	2.779534E-1	2.675760E-1	2.771557E-1	2.763523E-1	2.643844E-1	2.665169E-1	2.551288E-1	2.472967E-1	2.568258E-1	2.632226E-1	2.908434E-1	2.737621E-1	2.602992E-1	2.633167E-1	2.655936E-1	2.686265E-1	2.973775E-1	2.580338E-1	3.098150E-1	2.680716E-1	2.607549E-1	2.741460E-1	3.004936E-1	2.793969E-1	3.203427E-1	2.861209E-1	2.616226E-1	2.743086E-1	3.001947E-1	2.781976E-1	2.795020E-1	2.718203E-1	2.802022E-1	2.729771E-1	2.424734E-1	2.676411E-1	2.902376E-1	2.821831E-1	2.488173E-1	2.915083E-1	2.847894E-1	2.919636E-1	2.770268E-1	2.762103E-1	2.830532E-1	2.634984E-1	2.770951E-1	2.969928E-1	2.615343E-1	2.779914E-1	2.840866E-1	2.922834E-1	2.572077E-1	2.840404E-1	2.738020E-1	2.604725E-1	2.738671E-1	3.052577E-1	2.629511E-1	2.643530E-1	2.770240E-1	2.903654E-1	2.411647E-1	2.685887E-1	2.746871E-1	2.844511E-1	3.135633E-1	2.685511E-1	2.731486E-1	2.807666E-1	3.194542E-1	2.824441E-1	3.043100E-1	2.548546E-1	2.658155E-1	2.624683E-1	2.660693E-1	2.816189E-1	2.781261E-1	2.952706E-1	2.607026E-1	2.795649E-1	2.906838E-1	2.778399E-1	2.866069E-1	2.744065E-1	2.731597E-1	2.700243E-1	2.819664E-1	2.878530E-1	2.816223E-1	2.831542E-1	2.887793E-1	2.711700E-1	2.694572E-1	2.836355E-1	3.017718E-1	2.959125E-1	3.004658E-1	3.065138E-1	3.003890E-1	2.825887E-1	2.414875E-1	2.821253E-1	3.007406E-1	2.956151E-1	2.424696E-1	2.775554E-1	2.741454E-1	2.919351E-1	2.681206E-1	2.736779E-1	3.362024E-1	2.573590E-1	2.823698E-1	2.827303E-1	2.784705E-1	2.960538E-1	2.597152E-1	3.044905E-1	2.842509E-1	2.676244E-1	2.668007E-1	2.324339E-1	2.949193E-1	2.873028E-1	2.869361E-1	3.027149E-1	2.943360E-1	2.608568E-1	2.933747E-1	2.864046E-1	2.907679E-1	2.959800E-1	2.772640E-1	2.780240E-1	2.752999E-1	3.120043E-1	2.717718E-1	2.739233E-1	2.756701E-1	2.794611E-1	2.941804E-1	3.083497E-1	3.174951E-1	2.694361E-1	2.997081E-1
2.847020E+2	5.151169E-1	5.041922E-1	4.674483E-1	4.863300E-1	4.521541E-1	5.303559E-1	5.012391E-1	5.238750E-1	4.724077E-1	4.900821E-1	4.922417E-1	4.761081E-1	4.852504E-1	4.619514E-1	4.741968E-1	4.813172E-1	4.693200E-1	4.824296E-1	5.413044E-1	5.076417E-1	4.844807E-1	5.030568E-1	5.213013E-1	4.951609E-1	4.994667E-1	5.009786E-1	4.555054E-1	4.727390E-1	5.329702E-1	5.127644E-1	4.834908E-1	4.543497E-1	5.090792E-1	4.831583E-1	5.206568E-1	5.017447E-1	4.843990E-1	4.694991E-1	4.927783E-1	5.442848E-1	4.793020E-1	5.218619E-1	5.008541E-1	4.825854E-1	5.082641E-1	4.858769E-1	4.967602E-1	4.882672E-1	4.938798E-1	5.319600E-1	4.979484E-1	4.767442E-1	4.593662E-1	4.887182E-1	4.919237E-1	5.136645E-1	5.117170E-1	4.544853E-1	5.048880E-1	4.422001E-1	5.201898E-1	4.373808E-1	4.777475E-1	4.990559E-1	5.153158E-1	5.100941E-1	5.223328E-1	4.494620E-1	5.278346E-1	4.880990E-1	4.777694E-1	4.722838E-1	5.066824E-1	5.421500E-1	5.086239E-1	4.787257E-1	4.925953E-1	5.008895E-1	4.841773E-1	5.116460E-1	4.986925E-1	4.688670E-1	4.771863E-1	4.881211E-1	4.866431E-1	4.711177E-1	4.881642E-1	5.217437E-1	5.019046E-1	4.931101E-1	5.148596E-1	5.033881E-1	4.894902E-1	5.025501E-1	5.296812E-1	5.114075E-1	5.120645E-1	5.107664E-1	4.835865E-1	4.581205E-1	4.777233E-1	4.883335E-1	5.148573E-1	4.900211E-1	5.241928E-1	5.102563E-1	4.990608E-1	4.981048E-1	5.038899E-1	5.018093E-1	5.163566E-1	5.023649E-1	4.984913E-1	4.969121E-1	4.768727E-1	5.180656E-1	5.027072E-1	5.224725E-1	5.186846E-1	4.809394E-1	4.971830E-1	4.732051E-1	5.325914E-1	4.848852E-1	4.886306E-1	4.992867E-1	4.954712E-1	5.024166E-1	5.428391E-1	5.422133E-1	5.162940E-1	4.718948E-1	4.937916E-1	5.274423E-1	4.924218E-1	4.728015E-1	4.433368E-1	4.960564E-1	4.998281E-1	4.936868E-1	4.949397E-1	5.277625E-1	4.682008E-1	4.846201E-1	5.259960E-1	5.586920E-1	4.928344E-1	5.149582E-1	4.598782E-1	5.022446E-1	4.782535E-1	4.927410E-1	4.973762E-1	5.175448E-1	5.307144E-1	5.093083E-1	5.042225E-1	4.820767E-1	4.932000E-1	4.994583E-1	4.829686E-1	5.009593E-1	5.318640E-1	5.340773E-1	4.517656E-1	4.821098E-1	5.242592E-1	4.717062E-1	5.328113E-1	4.973518E-1	5.401324E-1	6.140584E-1
2.848000E+2	9.648777E-1	9.497902E-1	9.879962E-1	1.025196E+0	9.310760E-1	9.871073E-1	9.797817E-1	9.553319E-1	9.792952E-1	9.490247E-1	9.676468E-1	9.799470E-1	9.620156E-1	9.569146E-1	9.944525E-1	9.698779E-1	1.025258E+0	9.758831E-1	1.008300E+0	9.897902E-1	9.623396E-1	1.015472E+0	9.251064E-1	9.646407E-1	9.485832E-1	9.233863E-1	9.611937E-1	9.802952E-1	9.759372E-1	9.717028E-1	9.250883E-1	9.551280E-1	9.942164E-1	9.913145E-1	9.574756E-1	9.460853E-1	9.425344E-1	9.686481E-1	9.388577E-1	9.952591E-1	9.710413E-1	9.491826E-1	1.015463E+0	9.991508E-1	1.056779E+0	9.620160E-1	9.652089E-1	1.035461E+0	9.708541E-1	1.034946E+0	9.293676E-1	9.825302E-1	9.615486E-1	1.007555E+0	9.657352E-1	1.023154E+0	9.826581E-1	9.728052E-1	9.090376E-1	1.013031E+0	1.006227E+0	9.720269E-1	9.806927E-1	9.961679E-1	1.047900E+0	9.824328E-1	9.963956E-1	9.330144E-1	9.941633E-1	1.030262E+0	9.458786E-1	9.657318E-1	9.701219E-1	9.635626E-1	9.513636E-1	9.716863E-1	9.987047E-1	9.755451E-1	9.752840E-1	9.832986E-1	9.763347E-1	9.947827E-1	9.945446E-1	9.480353E-1	9.822380E-1	1.025637E+0	1.023465E+0	1.024311E+0	9.415616E-1	9.874027E-1	1.026394E+0	1.045189E+0	1.010688E+0	9.830414E-1	9.864854E-1	9.806449E-1	9.922540E-1	9.788071E-1	9.991542E-1	9.848045E-1	9.972266E-1	1.001182E+0	1.020283E+0	9.864011E-1	1.009315E+0	1.031157E+0	9.538918E-1	9.561144E-1	1.032354E+0	9.837075E-1	9.615125E-1	9.513833E-1	9.919572E-1	9.488300E-1	1.019968E+0	9.944302E-1	9.693717E-1	1.020627E+0	9.969013E-1	9.831760E-1	1.005839E+0	9.886712E-1	9.911855E-1	9.633260E-1	9.999472E-1	1.001455E+0	1.077367E+0	9.913951E-1	9.829165E-1	9.745280E-1	1.028164E+0	9.540878E-1	9.981879E-1	1.048160E+0	1.029751E+0	1.004335E+0	1.030966E+0	1.018501E+0	9.773938E-1	1.015882E+0	9.509197E-1	9.748639E-1	9.536847E-1	9.925624E-1	1.017345E+0	9.914576E-1	9.827973E-1	9.633351E-1	9.936656E-1	1.006231E+0	9.704095E-1	1.003202E+0	9.338077E-1	1.053004E+0	9.878127E-1	1.020208E+0	1.028607E+0	9.316377E-1	9.873727E-1	9.867419E-1	1.000876E+0	9.228151E-1	9.825295E-1	1.030233E+0	1.010555E+0	1.045879E+0	9.660350E-1	9.968027E-1	9.963664E-1	9.293298E-1	9.758250E-1	9.309674E-1
2.849020E+2	1.446945E+0	1.467047E+0	1.417040E+0	1.483159E+0	1.441998E+0	1.415146E+0	1.436312E+0	1.410253E+0	1.443693E+0	1.364427E+0	1.383412E+0	1.479990E+0	1.405388E+0	1.467951E+0	1.394344E+0	1.463399E+0	1.382225E+0	1.404771E+0	1.490916E+0	1.352849E+0	1.353860E+0	1.397277E+0	1.417886E+0	1.383668E+0	1.389664E+0	1.405361E+0	1.447544E+0	1.442584E+0	1.441767E+0	1.454238E+0	1.416843E+0	1.408906E+0	1.419578E+0	1.423819E+0	1.398345E+0	1.423937E+0	1.467298E+0	1.457526E+0	1.424926E+0	1.430715E+0	1.452002E+0	1.436819E+0	1.406061E+0	1.428598E+0	1.481204E+0	1.463307E+0	1.462252E+0	1.431951E+0	1.412720E+0	1.451495E+0	1.390513E+0	1.409168E+0	1.452040E+0	1.459083E+0	1.436336E+0	1.429342E+0	1.456788E+0	1.502641E+0	1.387314E+0	1.439183E+0	1.492985E+0	1.451381E+0	1.391904E+0	1.446918E+0	1.466021E+0	1.393256E+0	1.454527E+0	1.413509E+0	1.414315E+0	1.480303E+0	1.452130E+0	1.447649E+0	1.404299E+0	1.425162E+0	1.445360E+0	1.421544E+0	1.365401E+0	1.475068E+0	1.457885E+0	1.397599E+0	1.413474E+0	1.494080E+0	1.441900E+0	1.455269E+0	1.426597E+0	1.459907E+0	1.461536E+0	1.433292E+0	1.457220E+0	1.412507E+0	1.412356E+0	1.425873E+0	1.475700E+0	1.454706E+0	1.478770E+0	1.460516E+0	1.525984E+0	1.432254E+0	1.482615E+0	1.452330E+0	1.427534E+0	1.443161E+0	1.514991E+0	1.417873E+0	1.477100E+0	1.432448E+0	1.448410E+0	1.431256E+0	1.391438E+0	1.397737E+0	1.404829E+0	1.410225E+0	1.441388E+0	1.366631E+0	1.412631E+0	1.414581E+0	1.452638E+0	1.479270E+0	1.514994E+0	1.414887E+0	1.379968E+0	1.402808E+0	1.457307E+0	1.471543E+0	1.468673E+0	1.377151E+0	1.426942E+0	1.446317E+0	1.465378E+0	1.450236E+0	1.513041E+0	1.467621E+0	1.442359E+0	1.423823E+0	1.515893E+0	1.426976E+0	1.455045E+0	1.393945E+0	1.425205E+0	1.385166E+0	1.472364E+0	1.444814E+0	1.479428E+0	1.454969E+0	1.423840E+0	1.511620E+0	1.421251E+0	1.391112E+0	1.420624E+0	1.610518E+0	1.492690E+0	1.459174E+0	1.443423E+0	1.513745E+0	1.458174E+0	1.460863E+0	1.459343E+0	1.428141E+0	1.420538E+0	1.381941E+0	1.427940E+0	1.367789E+0	1.460740E+0	1.488470E+0	1.433765E+0	1.476927E+0	1.389309E+0	1.380108E+0	1.369718E+0	1.429896E+0	1.342368E+0	1.414994E+0
2.850010E+2	1.427281E+0	1.453763E+0	1.467284E+0	1.500141E+0	1.436564E+0	1.502441E+0	1.428632E+0	1.495542E+0	1.475715E+0	1.438158E+0	1.464303E+0	1.458313E+0	1.467731E+0	1.496550E+0	1.437201E+0	1.454487E+0	1.437467E+0	1.405435E+0	1.468008E+0	1.498717E+0	1.469429E+0	1.411187E+0	1.459909E+0	1.466959E+0	1.388438E+0	1.510758E+0	1.446440E+0	1.459062E+0	1.482884E+0	1.457366E+0	1.458075E+0	1.480682E+0	1.473568E+0	1.434527E+0	1.454752E+0	1.455151E+0	1.488047E+0	1.409029E+0	1.396818E+0	1.442595E+0	1.485644E+0	1.453267E+0	1.483419E+0	1.485439E+0	1.498779E+0	1.462254E+0	1.506783E+0	1.491952E+0	1.412503E+0	1.469976E+0	1.440234E+0	1.447579E+0	1.449367E+0	1.471637E+0	1.416235E+0	1.475475E+0	1.478267E+0	1.522974E+0	1.503365E+0	1.433774E+0	1.496446E+0	1.488274E+0	1.387108E+0	1.489698E+0	1.536648E+0	1.406883E+0	1.477500E+0	1.508224E+0	1.473787E+0	1.471083E+0	1.501990E+0	1.413150E+0	1.487095E+0	1.510520E+0	1.414908E+0	1.397417E+0	1.417051E+0	1.447633E+0	1.427741E+0	1.461284E+0	1.460199E+0	1.502137E+0	1.452474E+0	1.499124E+0	1.481975E+0	1.454634E+0	1.467915E+0	1.500221E+0	1.424474E+0	1.475134E+0	1.506579E+0	1.530705E+0	1.503517E+0	1.419371E+0	1.491638E+0	1.445034E+0	1.425040E+0	1.396684E+0	1.456904E+0	1.460268E+0	1.452538E+0	1.433041E+0	1.503397E+0	1.468202E+0	1.516659E+0	1.426591E+0	1.454200E+0	1.416176E+0	1.555560E+0	1.515613E+0	1.446931E+0	1.418106E+0	1.461720E+0	1.390024E+0	1.456668E+0	1.455236E+0	1.397243E+0	1.432395E+0	1.549201E+0	1.490466E+0	1.449140E+0	1.502646E+0	1.505059E+0	1.461623E+0	1.488081E+0	1.493693E+0	1.459146E+0	1.426235E+0	1.519048E+0	1.509370E+0	1.574991E+0	1.439206E+0	1.477080E+0	1.445791E+0	1.509919E+0	1.494555E+0	1.485732E+0	1.497425E+0	1.460476E+0	1.461349E+0	1.428337E+0	1.442779E+0	1.453018E+0	1.449169E+0	1.528620E+0	1.522437E+0	1.412080E+0	1.432675E+0	1.420160E+0	1.557406E+0	1.476089E+0	1.466991E+0	1.445776E+0	1.453309E+0	1.428739E+0	1.506630E+0	1.493178E+0	1.429227E+0	1.464958E+0	1.393252E+0	1.491319E+0	1.513841E+0	1.454194E+0	1.442286E+0	1.466482E+0	1.569547E+0	1.512524E+0	1.487173E+0	1.467105E+0	1.447608E+0	1.492850E+0	1.335975E+0
2.851060E+2	1.284507E+0	1.241031E+0	1.250118E+0	1.335270E+0	1.200878E+0	1.301780E+0	1.235562E+0	1.291167E+0	1.251317E+0	1.295711E+0	1.268852E+0	1.271772E+0	1.231450E+0	1.228181E+0	1.197604E+0	1.314763E+0	1.180304E+0	1.210819E+0	1.216329E+0	1.211688E+0	1.194756E+0	1.230813E+0	1.213148E+0	1.236895E+0	1.153534E+0	1.267461E+0	1.182597E+0	1.245390E+0	1.243206E+0	1.228926E+0	1.226990E+0	1.221309E+0	1.240663E+0	1.242761E+0	1.197199E+0	1.200337E+0	1.229881E+0	1.229181E+0	1.239683E+0	1.219741E+0	1.210205E+0	1.269727E+0	1.229345E+0	1.218637E+0	1.252236E+0	1.266819E+0	1.181979E+0	1.270588E+0	1.280217E+0	1.207898E+0	1.248126E+0	1.267235E+0	1.254088E+0	1.279035E+0	1.235893E+0	1.237205E+0	1.238856E+0	1.301641E+0	1.185789E+0	1.318585E+0	1.272496E+0	1.221732E+0	1.200173E+0	1.227509E+0	1.339935E+0	1.256850E+0	1.211799E+0	1.216617E+0	1.270611E+0	1.311870E+0	1.290215E+0	1.237829E+0	1.320951E+0	1.266767E+0	1.265376E+0	1.255068E+0	1.180620E+0	1.177777E+0	1.278724E+0	1.267644E+0	1.290936E+0	1.237335E+0	1.258023E+0	1.268086E+0	1.261694E+0	1.176075E+0	1.224661E+0	1.297008E+0	1.198137E+0	1.202164E+0	1.236193E+0	1.373479E+0	1.263962E+0	1.260309E+0	1.209033E+0	1.255683E+0	1.284263E+0	1.259795E+0	1.252282E+0	1.270955E+0	1.250962E+0	1.270742E+0	1.260400E+0	1.249818E+0	1.315256E+0	1.250727E+0	1.246289E+0	1.232628E+0	1.274039E+0	1.239964E+0	1.269454E+0	1.256675E+0	1.284855E+0	1.383122E+0	1.298144E+0	1.269895E+0	1.330954E+0	1.212463E+0	1.357251E+0	1.223020E+0	1.243746E+0	1.262532E+0	1.342433E+0	1.251655E+0	1.314928E+0	1.216863E+0	1.251425E+0	1.249523E+0	1.266881E+0	1.231670E+0	1.274278E+0	1.254253E+0	1.225303E+0	1.294518E+0	1.292293E+0	1.187618E+0	1.199138E+0	1.244890E+0	1.308969E+0	1.307973E+0	1.253561E+0	1.316751E+0	1.251620E+0	1.296646E+0	1.265270E+0	1.261310E+0	1.230795E+0	1.217503E+0	1.232246E+0	1.309442E+0	1.222003E+0	1.262932E+0	1.283666E+0	1.234335E+0	1.260463E+0	1.319366E+0	1.284628E+0	1.230880E+0	1.239470E+0	1.215418E+0	1.285181E+0	1.233572E+0	1.228226E+0	1.278306E+0	1.261910E+0	1.356277E+0	1.257758E+0	1.307548E+0	1.309189E+0	1.148237E+0	1.221366E+0	1.281947E+0
2.852010E+2	1.069162E+0	1.106442E+0	1.099333E+0	1.067963E+0	1.102321E+0	1.064590E+0	1.150251E+0	1.109220E+0	1.041761E+0	1.062460E+0	1.152440E+0	1.089243E+0	1.142701E+0	1.100745E+0	1.044882E+0	1.119826E+0	1.086066E+0	9.986535E-1	1.079436E+0	1.104482E+0	1.083197E+0	1.113043E+0	1.074157E+0	1.080738E+0	1.067021E+0	1.119828E+0	1.058864E+0	1.120481E+0	1.042732E+0	1.111675E+0	1.102256E+0	1.062716E+0	1.075361E+0	1.045609E+0	1.065345E+0	1.072222E+0	1.052764E+0	1.094949E+0	1.122214E+0	1.033996E+0	1.101655E+0	1.092960E+0	1.078166E+0	1.089904E+0	1.077839E+0	1.063204E+0	1.074959E+0	1.080512E+0	1.073643E+0	1.103587E+0	9.991031E-1	1.120975E+0	1.090728E+0	1.109957E+0	1.070066E+0	1.087790E+0	1.070179E+0	1.159783E+0	1.155224E+0	1.102341E+0	1.159981E+0	1.069281E+0	1.093118E+0	1.087067E+0	1.104117E+0	1.089666E+0	1.108485E+0	1.052789E+0	1.110713E+0	1.072694E+0	1.128229E+0	1.117251E+0	1.064714E+0	1.103013E+0	1.069227E+0	1.042175E+0	1.069211E+0	1.091345E+0	1.044859E+0	1.089153E+0	1.090782E+0	1.078917E+0	1.096622E+0	1.125529E+0	1.065776E+0	1.055273E+0	1.118343E+0	1.065870E+0	1.069020E+0	1.115730E+0	1.105540E+0	1.092394E+0	1.155955E+0	1.116684E+0	1.099078E+0	1.100497E+0	1.109632E+0	1.020552E+0	1.071056E+0	1.099582E+0	1.096178E+0	1.036539E+0	1.070263E+0	1.078835E+0	1.089521E+0	1.069907E+0	1.052313E+0	1.085756E+0	1.135204E+0	1.094269E+0	1.059306E+0	1.071270E+0	1.126057E+0	1.047932E+0	1.163286E+0	1.033641E+0	1.148039E+0	1.103882E+0	1.125706E+0	1.106755E+0	1.065946E+0	1.135423E+0	1.143863E+0	1.066980E+0	1.116179E+0	1.116496E+0	1.087795E+0	1.071992E+0	1.108866E+0	1.081075E+0	1.091621E+0	1.054114E+0	1.115856E+0	1.134501E+0	1.083494E+0	1.044497E+0	1.050747E+0	1.121842E+0	1.131550E+0	1.109741E+0	1.113543E+0	1.069498E+0	1.068074E+0	1.094396E+0	1.116875E+0	1.089459E+0	1.150437E+0	1.083365E+0	1.107060E+0	1.121991E+0	1.093740E+0	1.133078E+0	1.141099E+0	1.094830E+0	1.138963E+0	1.063458E+0	1.078843E+0	1.060871E+0	1.085684E+0	1.084665E+0	1.118432E+0	1.111169E+0	1.063443E+0	1.075915E+0	1.140367E+0	1.194354E+0	1.150653E+0	1.139603E+0	1.101655E+0	1.064549E+0	1.035487E+0	9.944814E-1
2.853000E+2	8.127766E-1	8.460380E-1	8.492250E-1	8.211656E-1	7.897440E-1	8.001484E-1	7.730403E-1	8.254409E-1	7.584088E-1	8.189451E-1	8.194026E-1	8.404106E-1	7.924770E-1	8.164432E-1	7.619349E-1	7.444543E-1	8.329959E-1	7.834325E-1	8.403404E-1	8.478281E-1	8.623996E-1	7.966477E-1	8.009104E-1	8.138181E-1	8.306421E-1	8.179930E-1	7.764063E-1	8.368377E-1	8.162552E-1	8.138474E-1	8.146581E-1	8.176420E-1	8.409059E-1	8.309780E-1	8.303891E-1	8.388247E-1	7.750838E-1	8.088244E-1	8.500940E-1	8.336896E-1	7.542579E-1	8.168000E-1	8.017085E-1	8.507439E-1	8.878536E-1	8.344664E-1	7.955414E-1	8.546767E-1	8.469066E-1	8.530826E-1	8.537839E-1	8.817187E-1	8.227672E-1	8.422429E-1	8.030829E-1	8.221810E-1	8.221395E-1	8.056108E-1	7.808129E-1	8.150240E-1	8.231389E-1	7.834501E-1	8.294593E-1	8.083168E-1	8.508589E-1	8.290008E-1	8.480042E-1	7.733480E-1	8.117860E-1	8.200012E-1	8.387654E-1	8.466631E-1	8.376576E-1	8.745827E-1	8.051721E-1	8.449946E-1	8.298348E-1	8.058111E-1	8.022972E-1	8.418612E-1	8.465256E-1	8.460962E-1	8.547392E-1	8.604777E-1	8.187384E-1	8.271568E-1	8.502890E-1	8.163330E-1	8.094263E-1	7.781886E-1	8.071320E-1	8.560275E-1	7.811596E-1	8.344895E-1	8.495083E-1	8.402156E-1	8.704937E-1	7.909668E-1	8.224040E-1	7.762736E-1	7.838343E-1	8.006362E-1	8.544525E-1	7.815640E-1	8.307846E-1	8.079781E-1	8.234280E-1	8.150790E-1	8.759618E-1	7.963608E-1	8.507599E-1	8.206914E-1	8.309281E-1	7.937508E-1	8.865728E-1	8.590005E-1	7.929600E-1	8.571297E-1	8.491384E-1	8.013338E-1	8.510893E-1	8.192387E-1	8.338530E-1	8.768512E-1	8.546744E-1	8.179114E-1	8.491924E-1	8.151071E-1	8.941609E-1	8.148202E-1	8.391941E-1	8.713040E-1	8.096067E-1	8.267022E-1	8.565121E-1	8.292062E-1	8.101251E-1	8.733579E-1	8.135735E-1	8.336636E-1	8.440119E-1	8.391390E-1	8.156522E-1	8.035081E-1	7.829122E-1	8.553811E-1	8.430397E-1	8.148723E-1	8.002349E-1	8.118289E-1	7.932645E-1	7.963451E-1	7.675177E-1	8.294038E-1	8.399044E-1	8.103123E-1	8.873514E-1	8.195663E-1	8.393357E-1	8.472308E-1	9.245019E-1	8.197925E-1	7.963659E-1	8.796627E-1	8.380419E-1	8.274449E-1	8.098290E-1	8.294717E-1	8.297502E-1	8.489987E-1	8.153873E-1	8.358465E-1
2.854020E+2	7.033305E-1	6.958133E-1	7.114032E-1	7.362773E-1	6.371547E-1	6.491977E-1	6.624580E-1	7.227059E-1	6.779831E-1	6.672830E-1	6.879973E-1	6.737974E-1	7.043759E-1	6.818753E-1	6.495901E-1	6.806613E-1	7.045049E-1	6.476606E-1	6.792523E-1	6.702482E-1	6.931283E-1	6.969772E-1	6.478141E-1	6.934976E-1	7.130575E-1	6.226401E-1	6.944309E-1	7.174620E-1	6.810849E-1	6.258958E-1	6.952257E-1	6.864361E-1	6.214554E-1	6.343644E-1	6.516077E-1	6.992535E-1	6.653519E-1	6.543371E-1	6.520317E-1	6.880540E-1	6.721211E-1	6.579603E-1	6.529892E-1	6.692858E-1	6.851039E-1	7.356502E-1	6.356741E-1	6.815590E-1	6.683875E-1	6.721643E-1	7.199491E-1	6.689628E-1	6.821367E-1	7.072175E-1	6.985440E-1	7.250514E-1	7.144549E-1	7.029363E-1	6.940812E-1	7.267552E-1	7.153215E-1	6.577196E-1	6.593472E-1	6.739922E-1	7.389832E-1	6.873176E-1	6.761829E-1	7.171687E-1	6.839661E-1	7.135705E-1	7.000386E-1	7.027795E-1	6.778656E-1	7.003788E-1	6.811815E-1	7.068156E-1	6.630533E-1	6.866014E-1	6.616468E-1	6.721178E-1	6.547275E-1	6.787197E-1	6.759861E-1	6.783209E-1	7.210667E-1	6.767304E-1	6.821683E-1	6.922215E-1	6.541720E-1	6.339724E-1	6.766985E-1	7.149641E-1	6.940763E-1	6.823027E-1	6.951344E-1	6.605943E-1	6.709905E-1	7.128810E-1	6.925593E-1	6.793860E-1	6.602959E-1	6.964172E-1	6.643914E-1	7.000394E-1	6.706318E-1	7.244790E-1	7.576130E-1	6.673386E-1	6.654402E-1	6.611759E-1	6.756844E-1	7.053797E-1	7.177880E-1	7.066394E-1	6.897594E-1	7.185102E-1	7.150924E-1	6.966547E-1	7.037377E-1	7.074374E-1	6.582263E-1	7.600676E-1	6.978114E-1	7.062171E-1	6.814315E-1	7.159275E-1	7.008957E-1	7.145496E-1	7.066371E-1	6.629126E-1	7.125703E-1	6.924504E-1	6.814896E-1	7.210117E-1	7.025580E-1	6.804115E-1	7.480728E-1	7.056086E-1	6.503590E-1	6.386813E-1	6.602825E-1	6.741389E-1	7.055524E-1	7.288053E-1	7.067594E-1	7.538672E-1	6.753577E-1	6.966124E-1	6.766304E-1	7.663222E-1	7.374198E-1	6.723937E-1	6.825356E-1	7.021947E-1	6.698520E-1	6.906745E-1	6.723228E-1	6.713812E-1	6.892036E-1	7.111680E-1	6.973621E-1	7.038149E-1	6.807104E-1	6.902598E-1	6.626088E-1	7.004044E-1	6.952591E-1	6.868657E-1	6.558217E-1	6.463833E-1	6.084505E-1	7.570196E-1
2.855050E+2	5.533294E-1	5.588538E-1	5.402124E-1	5.126115E-1	4.889683E-1	5.451928E-1	5.834458E-1	5.417423E-1	5.511966E-1	5.629717E-1	5.418684E-1	5.384873E-1	5.791178E-1	5.314035E-1	5.447932E-1	5.629159E-1	5.754872E-1	5.177435E-1	5.668159E-1	5.342620E-1	5.648048E-1	5.134636E-1	5.780641E-1	5.660717E-1	5.507640E-1	5.479320E-1	5.454527E-1	5.382883E-1	5.330877E-1	5.315344E-1	5.509978E-1	5.705721E-1	5.285097E-1	5.761211E-1	5.145971E-1	5.413406E-1	5.694704E-1	5.374899E-1	5.475764E-1	5.395256E-1	5.304235E-1	5.598045E-1	5.456143E-1	5.204882E-1	5.424213E-1	5.797956E-1	5.654911E-1	5.740138E-1	5.083837E-1	5.146329E-1	5.641420E-1	5.334298E-1	5.108211E-1	5.283880E-1	5.704867E-1	5.725610E-1	5.533477E-1	5.512590E-1	5.593116E-1	5.504934E-1	6.038104E-1	5.724593E-1	5.336346E-1	5.561064E-1	5.598568E-1	5.886718E-1	5.737171E-1	5.497017E-1	5.532115E-1	5.836081E-1	5.681243E-1	5.580265E-1	5.761712E-1	5.976625E-1	5.637582E-1	5.535925E-1	6.258807E-1	5.528229E-1	5.957826E-1	5.546300E-1	5.455719E-1	5.921088E-1	5.600887E-1	5.574293E-1	6.037999E-1	5.391332E-1	5.600922E-1	5.776843E-1	5.342557E-1	5.323264E-1	5.213823E-1	5.264371E-1	5.784342E-1	5.384774E-1	5.413611E-1	5.606872E-1	5.745973E-1	5.493701E-1	5.197469E-1	5.193111E-1	5.498155E-1	5.519184E-1	5.661419E-1	5.891587E-1	5.695971E-1	5.311158E-1	5.663568E-1	5.689647E-1	5.604867E-1	5.723610E-1	5.405920E-1	5.156029E-1	5.992800E-1	5.603436E-1	5.655625E-1	5.624256E-1	5.437635E-1	5.540113E-1	5.472165E-1	6.122593E-1	5.758115E-1	5.446744E-1	5.686158E-1	5.477541E-1	5.819138E-1	5.664546E-1	5.916789E-1	5.913738E-1	5.658438E-1	5.667757E-1	5.524985E-1	5.573066E-1	5.663674E-1	5.663992E-1	5.503303E-1	5.889854E-1	5.995868E-1	5.830336E-1	5.375249E-1	5.592981E-1	5.542781E-1	5.627689E-1	5.811340E-1	5.567144E-1	5.481489E-1	6.296430E-1	5.906977E-1	5.313702E-1	5.840735E-1	6.136302E-1	5.715655E-1	5.412776E-1	5.662784E-1	6.229651E-1	5.551768E-1	5.615232E-1	5.998830E-1	5.380927E-1	5.959462E-1	5.668428E-1	5.756426E-1	5.594109E-1	5.490189E-1	5.397669E-1	6.128414E-1	5.822850E-1	6.044135E-1	5.532764E-1	5.675020E-1	5.794688E-1	5.495614E-1	4.307697E-1
2.856010E+2	4.668632E-1	4.178929E-1	4.395894E-1	4.292642E-1	4.243060E-1	4.319621E-1	4.656227E-1	4.324381E-1	4.428619E-1	4.492038E-1	4.284067E-1	4.505481E-1	4.283628E-1	4.298963E-1	4.043291E-1	4.264555E-1	4.123044E-1	4.080652E-1	4.643091E-1	4.421417E-1	3.756412E-1	4.188441E-1	4.107655E-1	4.519322E-1	4.347983E-1	4.111256E-1	3.984737E-1	4.499761E-1	4.360211E-1	4.525741E-1	4.383695E-1	4.136711E-1	4.266680E-1	4.595788E-1	4.339576E-1	4.373602E-1	4.033153E-1	4.139251E-1	4.373420E-1	4.159806E-1	4.395565E-1	4.378603E-1	4.414757E-1	4.106409E-1	4.450302E-1	4.240211E-1	4.578773E-1	3.915033E-1	4.347143E-1	3.953927E-1	4.129119E-1	4.567814E-1	4.373351E-1	4.167656E-1	4.588460E-1	4.358811E-1	4.630444E-1	4.452551E-1	4.688989E-1	4.294379E-1	4.323924E-1	4.554524E-1	4.339904E-1	4.169580E-1	4.481784E-1	4.435423E-1	4.297570E-1	4.482339E-1	4.381946E-1	4.400244E-1	4.397778E-1	4.420090E-1	4.726228E-1	4.513545E-1	4.242813E-1	4.388942E-1	4.381758E-1	4.513021E-1	3.905160E-1	4.562321E-1	4.539257E-1	4.369371E-1	4.497876E-1	4.304861E-1	4.225297E-1	3.958278E-1	4.859464E-1	4.510977E-1	4.180738E-1	4.243612E-1	4.221128E-1	4.373767E-1	4.680726E-1	4.307530E-1	4.314620E-1	4.566474E-1	4.371025E-1	4.347429E-1	4.763012E-1	4.413917E-1	4.434238E-1	4.322248E-1	4.727386E-1	4.427159E-1	4.280682E-1	4.535436E-1	4.451959E-1	4.496809E-1	4.456901E-1	4.111174E-1	4.662775E-1	3.983721E-1	4.380554E-1	4.292256E-1	4.341117E-1	4.376153E-1	4.190230E-1	4.200207E-1	4.834654E-1	4.549718E-1	4.238718E-1	4.259752E-1	4.662238E-1	4.273365E-1	4.254488E-1	4.511337E-1	4.521240E-1	4.001804E-1	4.223621E-1	4.612447E-1	4.705334E-1	4.261980E-1	4.454188E-1	4.723915E-1	4.651753E-1	4.333276E-1	4.309968E-1	4.540269E-1	4.550615E-1	3.957280E-1	4.585417E-1	4.213009E-1	3.900543E-1	4.615702E-1	4.605337E-1	4.561233E-1	4.338908E-1	4.385207E-1	4.108581E-1	4.468573E-1	4.510210E-1	4.110715E-1	4.626034E-1	4.494302E-1	4.757743E-1	4.484763E-1	4.471968E-1	4.822606E-1	4.682728E-1	4.476178E-1	4.242011E-1	4.509732E-1	4.252264E-1	4.314288E-1	5.026383E-1	4.874439E-1	4.768124E-1	4.597402E-1	4.548107E-1	3.733941E-1	4.756455E-1	4.774944E-1
2.858010E+2	4.560087E-1	3.946771E-1	4.209606E-1	4.711785E-1	4.301091E-1	4.270742E-1	4.730374E-1	4.891396E-1	4.380402E-1	4.607144E-1	4.563292E-1	4.401567E-1	4.455226E-1	4.594511E-1	4.219724E-1	4.505841E-1	4.447533E-1	4.350289E-1	4.371566E-1	4.252737E-1	3.740298E-1	4.109079E-1	4.882357E-1	4.211138E-1	4.466678E-1	4.585081E-1	4.584656E-1	4.735058E-1	4.515059E-1	4.117161E-1	4.626209E-1	4.344174E-1	4.626606E-1	4.511745E-1	4.204688E-1	4.369986E-1	4.361302E-1	4.582765E-1	4.312034E-1	4.369488E-1	4.408373E-1	4.146074E-1	4.087575E-1	4.239302E-1	4.684019E-1	4.183021E-1	4.076353E-1	5.088928E-1	4.542415E-1	4.476533E-1	4.253794E-1	4.237812E-1	4.449575E-1	4.657361E-1	4.704035E-1	4.373394E-1	4.125589E-1	4.433082E-1	4.150384E-1	4.575597E-1	4.709542E-1	4.730206E-1	4.152447E-1	4.420191E-1	4.773985E-1	4.276701E-1	4.679702E-1	4.569277E-1	4.331918E-1	4.528424E-1	4.621096E-1	4.458641E-1	4.432797E-1	4.448735E-1	4.951262E-1	4.412795E-1	4.312659E-1	4.124424E-1	4.713302E-1	4.548717E-1	4.426474E-1	4.629218E-1	4.409651E-1	4.347069E-1	4.628118E-1	4.310074E-1	4.698415E-1	4.612692E-1	4.282531E-1	4.608351E-1	4.042041E-1	4.383060E-1	4.563811E-1	4.212049E-1	4.167553E-1	4.678654E-1	4.729109E-1	4.294459E-1	4.441004E-1	4.113141E-1	4.281218E-1	4.581155E-1	4.804754E-1	4.647530E-1	4.784029E-1	4.103907E-1	4.351737E-1	4.400854E-1	4.603699E-1	4.146601E-1	4.199186E-1	4.494530E-1	4.836504E-1	4.114260E-1	4.403680E-1	4.568830E-1	4.265187E-1	4.113803E-1	4.290245E-1	4.706646E-1	4.447857E-1	4.589783E-1	4.660632E-1	4.248475E-1	4.388350E-1	4.249731E-1	4.582347E-1	4.772730E-1	4.595525E-1	4.338556E-1	4.459633E-1	4.419855E-1	4.319322E-1	4.224441E-1	4.842418E-1	4.568440E-1	4.493356E-1	4.808020E-1	4.489395E-1	4.808595E-1	4.576385E-1	4.448390E-1	4.533559E-1	4.763724E-1	4.563215E-1	4.886310E-1	4.093085E-1	4.577136E-1	4.497117E-1	4.651484E-1	4.598822E-1	4.624230E-1	4.024552E-1	4.125896E-1	4.758788E-1	4.701776E-1	4.840661E-1	4.798022E-1	4.444703E-1	4.768656E-1	4.639418E-1	4.464178E-1	4.392353E-1	4.612062E-1	4.363267E-1	4.690776E-1	4.240497E-1	4.618878E-1	4.446949E-1	4.504093E-1	4.247093E-1	4.278971E-1
2.860050E+2	6.549877E-1	7.084771E-1	7.413201E-1	7.123957E-1	6.761742E-1	6.757193E-1	7.113807E-1	7.050738E-1	6.713649E-1	6.742109E-1	6.864465E-1	6.944640E-1	6.834770E-1	6.914636E-1	7.008438E-1	6.806247E-1	7.382534E-1	6.528069E-1	6.717548E-1	6.660848E-1	7.365871E-1	6.735269E-1	6.586128E-1	7.197355E-1	6.506855E-1	7.169825E-1	7.138545E-1	6.751599E-1	7.259508E-1	6.972175E-1	6.951037E-1	7.087121E-1	7.144275E-1	6.829222E-1	7.034743E-1	7.291239E-1	6.980228E-1	6.748732E-1	7.083729E-1	7.410852E-1	6.768986E-1	6.825523E-1	6.963668E-1	7.016183E-1	6.914370E-1	7.079165E-1	6.580445E-1	6.916088E-1	7.133397E-1	7.164025E-1	6.870174E-1	6.496882E-1	7.355415E-1	6.483877E-1	7.194666E-1	6.940166E-1	6.512181E-1	7.086139E-1	6.904151E-1	6.795511E-1	7.661712E-1	7.137833E-1	7.432709E-1	7.394896E-1	7.055739E-1	7.290232E-1	7.482640E-1	7.267063E-1	6.951513E-1	7.100951E-1	7.525157E-1	6.687403E-1	7.271348E-1	7.007611E-1	7.372056E-1	7.224737E-1	7.534087E-1	6.936542E-1	7.364961E-1	7.095538E-1	7.008275E-1	6.685880E-1	7.546419E-1	6.921395E-1	7.172656E-1	6.915755E-1	7.074031E-1	7.237270E-1	7.017809E-1	6.915313E-1	7.404343E-1	6.846001E-1	6.789461E-1	6.965882E-1	6.977378E-1	6.821985E-1	6.926521E-1	6.796195E-1	6.581811E-1	6.434272E-1	7.223865E-1	7.048965E-1	7.120096E-1	6.816993E-1	6.881324E-1	7.077682E-1	7.380210E-1	7.053215E-1	6.973168E-1	7.070379E-1	7.282638E-1	6.717198E-1	7.421542E-1	6.849080E-1	7.245050E-1	7.070403E-1	7.224264E-1	7.258923E-1	7.320709E-1	7.172821E-1	7.378513E-1	7.392260E-1	7.385012E-1	6.832473E-1	7.227661E-1	6.770666E-1	7.162684E-1	7.107831E-1	7.139164E-1	7.020601E-1	7.168896E-1	7.011125E-1	7.503835E-1	7.492190E-1	7.309122E-1	6.654340E-1	6.756228E-1	6.903049E-1	7.310999E-1	7.273843E-1	7.076808E-1	7.135592E-1	7.724865E-1	6.984580E-1	7.002799E-1	7.605298E-1	7.054851E-1	7.090115E-1	6.852569E-1	7.118144E-1	7.178907E-1	7.377973E-1	7.111201E-1	7.560647E-1	7.898906E-1	7.009619E-1	6.611806E-1	7.065332E-1	7.096465E-1	7.269240E-1	7.470242E-1	7.116800E-1	7.226746E-1	7.096630E-1	6.684882E-1	7.374557E-1	7.257693E-1	7.075806E-1	7.043837E-1	6.762026E-1	7.266218E-1	7.204718E-1
2.862050E+2	1.298469E+0	1.207529E+0	1.206260E+0	1.254282E+0	1.263057E+0	1.225442E+0	1.224401E+0	1.264783E+0	1.202478E+0	1.266338E+0	1.264953E+0	1.271109E+0	1.236677E+0	1.205841E+0	1.246483E+0	1.212608E+0	1.254006E+0	1.134760E+0	1.236530E+0	1.237103E+0	1.231898E+0	1.237205E+0	1.212660E+0	1.254718E+0	1.248944E+0	1.238978E+0	1.208363E+0	1.242814E+0	1.164135E+0	1.240841E+0	1.239347E+0	1.168416E+0	1.246207E+0	1.242389E+0	1.235580E+0	1.221679E+0	1.194091E+0	1.194411E+0	1.279178E+0	1.250436E+0	1.248003E+0	1.240156E+0	1.196605E+0	1.251079E+0	1.317273E+0	1.240961E+0	1.258149E+0	1.218074E+0	1.261169E+0	1.265228E+0	1.226914E+0	1.272357E+0	1.257404E+0	1.258401E+0	1.315726E+0	1.234651E+0	1.195153E+0	1.205685E+0	1.198876E+0	1.214340E+0	1.297308E+0	1.202026E+0	1.239377E+0	1.212815E+0	1.305399E+0	1.282870E+0	1.236358E+0	1.222253E+0	1.214571E+0	1.205557E+0	1.213574E+0	1.240003E+0	1.214620E+0	1.238110E+0	1.311500E+0	1.272925E+0	1.263861E+0	1.209096E+0	1.238517E+0	1.295064E+0	1.220595E+0	1.193622E+0	1.308570E+0	1.255213E+0	1.227807E+0	1.180400E+0	1.300747E+0	1.250000E+0	1.181501E+0	1.226460E+0	1.284145E+0	1.232781E+0	1.271393E+0	1.233780E+0	1.210959E+0	1.274249E+0	1.211511E+0	1.149175E+0	1.206084E+0	1.219277E+0	1.224142E+0	1.239947E+0	1.303843E+0	1.285932E+0	1.239100E+0	1.258923E+0	1.253496E+0	1.148250E+0	1.236227E+0	1.232700E+0	1.222131E+0	1.210143E+0	1.244658E+0	1.266991E+0	1.279139E+0	1.269117E+0	1.231892E+0	1.210810E+0	1.218575E+0	1.245171E+0	1.170361E+0	1.233855E+0	1.243307E+0	1.256973E+0	1.191452E+0	1.259063E+0	1.277032E+0	1.201001E+0	1.217818E+0	1.214563E+0	1.257691E+0	1.171007E+0	1.214057E+0	1.253750E+0	1.341525E+0	1.209547E+0	1.252101E+0	1.246238E+0	1.248979E+0	1.257601E+0	1.209172E+0	1.248860E+0	1.280254E+0	1.229458E+0	1.191249E+0	1.243364E+0	1.221920E+0	1.256530E+0	1.205229E+0	1.266552E+0	1.258732E+0	1.229027E+0	1.243391E+0	1.230034E+0	1.268671E+0	1.268532E+0	1.248159E+0	1.298582E+0	1.231639E+0	1.237324E+0	1.254515E+0	1.278289E+0	1.246200E+0	1.228426E+0	1.235503E+0	1.261144E+0	1.257280E+0	1.282869E+0	1.259859E+0	1.269998E+0	1.207120E+0	1.216769E+0
2.864190E+2	1.321330E+0	1.348830E+0	1.279146E+0	1.290593E+0	1.279200E+0	1.319228E+0	1.308099E+0	1.347544E+0	1.337264E+0	1.273638E+0	1.282720E+0	1.351256E+0	1.355107E+0	1.278271E+0	1.303109E+0	1.380745E+0	1.294209E+0	1.216582E+0	1.314078E+0	1.391092E+0	1.298106E+0	1.292851E+0	1.264701E+0	1.336294E+0	1.237298E+0	1.294274E+0	1.310741E+0	1.308614E+0	1.363966E+0	1.336600E+0	1.307543E+0	1.321499E+0	1.297094E+0	1.285391E+0	1.248340E+0	1.308818E+0	1.353459E+0	1.303995E+0	1.344800E+0	1.348096E+0	1.275234E+0	1.351038E+0	1.340876E+0	1.285312E+0	1.357746E+0	1.303313E+0	1.276454E+0	1.336869E+0	1.356845E+0	1.297447E+0	1.301721E+0	1.310935E+0	1.320095E+0	1.286533E+0	1.290523E+0	1.352025E+0	1.279589E+0	1.313204E+0	1.291024E+0	1.353006E+0	1.372025E+0	1.294943E+0	1.350406E+0	1.309322E+0	1.356175E+0	1.324648E+0	1.358960E+0	1.357437E+0	1.269822E+0	1.318746E+0	1.282707E+0	1.357116E+0	1.314408E+0	1.295547E+0	1.353595E+0	1.336000E+0	1.344291E+0	1.284027E+0	1.311242E+0	1.315970E+0	1.309671E+0	1.248603E+0	1.370663E+0	1.323254E+0	1.314396E+0	1.307024E+0	1.452977E+0	1.382408E+0	1.329650E+0	1.244245E+0	1.321109E+0	1.265948E+0	1.348520E+0	1.274705E+0	1.328481E+0	1.296120E+0	1.368231E+0	1.299357E+0	1.261943E+0	1.301939E+0	1.337457E+0	1.346164E+0	1.390457E+0	1.381696E+0	1.364377E+0	1.301988E+0	1.298521E+0	1.269438E+0	1.344581E+0	1.309634E+0	1.293561E+0	1.310756E+0	1.374760E+0	1.319007E+0	1.425735E+0	1.287995E+0	1.312976E+0	1.289069E+0	1.390063E+0	1.298760E+0	1.251092E+0	1.276185E+0	1.325780E+0	1.295166E+0	1.330012E+0	1.279946E+0	1.310571E+0	1.321696E+0	1.353304E+0	1.324097E+0	1.426301E+0	1.313900E+0	1.371967E+0	1.295805E+0	1.252322E+0	1.338486E+0	1.350310E+0	1.289617E+0	1.314360E+0	1.303716E+0	1.364801E+0	1.271494E+0	1.306671E+0	1.351426E+0	1.367292E+0	1.376690E+0	1.260245E+0	1.309643E+0	1.218966E+0	1.271905E+0	1.422506E+0	1.342668E+0	1.412499E+0	1.365653E+0	1.322879E+0	1.333800E+0	1.335330E+0	1.282364E+0	1.289093E+0	1.279184E+0	1.369014E+0	1.310768E+0	1.330286E+0	1.302981E+0	1.322010E+0	1.374917E+0	1.317134E+0	1.387119E+0	1.331783E+0	1.293212E+0	1.324398E+0	1.266776E+0
2.866180E+2	1.205738E+0	1.220996E+0	1.189725E+0	1.249631E+0	1.194214E+0	1.235926E+0	1.196887E+0	1.191603E+0	1.218592E+0	1.228566E+0	1.219498E+0	1.178687E+0	1.257646E+0	1.171835E+0	1.174424E+0	1.217466E+0	1.158896E+0	1.189540E+0	1.218622E+0	1.193359E+0	1.169423E+0	1.160855E+0	1.234695E+0	1.222692E+0	1.166372E+0	1.200420E+0	1.212770E+0	1.198604E+0	1.229986E+0	1.145860E+0	1.196203E+0	1.197118E+0	1.292403E+0	1.166360E+0	1.200003E+0	1.126123E+0	1.191351E+0	1.121837E+0	1.234105E+0	1.179527E+0	1.187477E+0	1.236855E+0	1.164147E+0	1.156851E+0	1.193224E+0	1.224952E+0	1.139894E+0	1.280483E+0	1.183617E+0	1.188396E+0	1.211877E+0	1.202921E+0	1.219424E+0	1.206172E+0	1.244026E+0	1.249125E+0	1.206690E+0	1.217450E+0	1.161782E+0	1.262765E+0	1.275726E+0	1.151844E+0	1.168893E+0	1.181618E+0	1.326211E+0	1.226502E+0	1.284649E+0	1.222503E+0	1.246610E+0	1.161761E+0	1.215701E+0	1.138981E+0	1.184378E+0	1.138925E+0	1.199219E+0	1.224644E+0	1.249095E+0	1.201570E+0	1.236966E+0	1.173857E+0	1.184131E+0	1.197738E+0	1.202777E+0	1.212209E+0	1.177379E+0	1.196431E+0	1.291400E+0	1.209483E+0	1.266469E+0	1.185118E+0	1.204577E+0	1.183973E+0	1.235174E+0	1.226901E+0	1.192946E+0	1.160678E+0	1.177813E+0	1.199632E+0	1.217557E+0	1.224121E+0	1.187257E+0	1.196279E+0	1.141734E+0	1.218310E+0	1.233429E+0	1.152271E+0	1.215845E+0	1.256473E+0	1.205731E+0	1.136171E+0	1.215515E+0	1.152969E+0	1.261518E+0	1.236338E+0	1.208628E+0	1.156199E+0	1.274475E+0	1.217287E+0	1.209576E+0	1.177906E+0	1.220191E+0	1.228631E+0	1.268438E+0	1.183835E+0	1.170347E+0	1.186310E+0	1.278746E+0	1.218215E+0	1.309159E+0	1.255614E+0	1.259650E+0	1.159689E+0	1.242468E+0	1.204404E+0	1.239049E+0	1.187900E+0	1.205712E+0	1.174355E+0	1.210062E+0	1.216741E+0	1.184926E+0	1.206832E+0	1.197099E+0	1.230211E+0	1.258481E+0	1.206115E+0	1.204317E+0	1.186382E+0	1.179009E+0	1.265272E+0	1.253278E+0	1.182402E+0	1.251527E+0	1.225994E+0	1.285938E+0	1.276547E+0	1.199846E+0	1.144572E+0	1.211399E+0	1.162184E+0	1.217207E+0	1.165539E+0	1.238977E+0	1.221014E+0	1.274704E+0	1.158441E+0	1.256212E+0	1.190379E+0	1.229187E+0	1.159823E+0	1.165846E+0	1.120497E+0
2.868000E+2	1.311527E+0	1.362341E+0	1.404712E+0	1.390159E+0	1.358805E+0	1.335596E+0	1.349320E+0	1.368070E+0	1.299707E+0	1.296355E+0	1.404185E+0	1.373880E+0	1.346535E+0	1.323630E+0	1.331213E+0	1.345069E+0	1.333513E+0	1.338872E+0	1.321384E+0	1.379639E+0	1.373599E+0	1.324689E+0	1.342473E+0	1.386296E+0	1.291837E+0	1.304708E+0	1.298688E+0	1.378856E+0	1.396740E+0	1.321250E+0	1.317076E+0	1.313050E+0	1.341114E+0	1.327452E+0	1.329283E+0	1.363392E+0	1.384116E+0	1.351562E+0	1.397088E+0	1.320900E+0	1.289582E+0	1.358726E+0	1.325439E+0	1.366324E+0	1.400985E+0	1.316266E+0	1.314946E+0	1.343427E+0	1.330604E+0	1.315945E+0	1.364852E+0	1.390807E+0	1.314402E+0	1.366892E+0	1.389706E+0	1.334373E+0	1.344758E+0	1.331646E+0	1.351233E+0	1.306112E+0	1.379577E+0	1.341993E+0	1.375052E+0	1.342993E+0	1.415718E+0	1.341265E+0	1.365366E+0	1.309638E+0	1.317151E+0	1.341045E+0	1.395635E+0	1.325833E+0	1.362804E+0	1.296617E+0	1.308238E+0	1.364703E+0	1.345856E+0	1.342830E+0	1.315152E+0	1.335450E+0	1.301107E+0	1.326893E+0	1.350944E+0	1.385912E+0	1.371845E+0	1.282999E+0	1.436052E+0	1.400790E+0	1.382726E+0	1.308843E+0	1.355931E+0	1.380414E+0	1.364231E+0	1.363325E+0	1.426358E+0	1.347914E+0	1.358197E+0	1.294776E+0	1.355020E+0	1.292905E+0	1.329832E+0	1.326377E+0	1.360627E+0	1.354299E+0	1.424496E+0	1.366580E+0	1.296635E+0	1.294180E+0	1.424884E+0	1.311427E+0	1.339966E+0	1.384470E+0	1.351113E+0	1.337350E+0	1.332462E+0	1.316429E+0	1.357542E+0	1.400485E+0	1.438948E+0	1.355480E+0	1.335806E+0	1.370203E+0	1.417663E+0	1.360280E+0	1.367766E+0	1.335716E+0	1.369983E+0	1.315178E+0	1.349605E+0	1.352171E+0	1.365484E+0	1.303131E+0	1.332948E+0	1.434522E+0	1.424574E+0	1.372128E+0	1.453238E+0	1.349974E+0	1.366375E+0	1.322292E+0	1.380242E+0	1.288142E+0	1.359463E+0	1.343028E+0	1.378889E+0	1.391793E+0	1.398021E+0	1.368636E+0	1.314332E+0	1.364399E+0	1.396934E+0	1.380466E+0	1.337734E+0	1.368646E+0	1.347172E+0	1.326427E+0	1.354773E+0	1.328215E+0	1.378471E+0	1.375056E+0	1.466437E+0	1.319104E+0	1.303401E+0	1.395751E+0	1.362485E+0	1.398318E+0	1.416495E+0	1.347296E+0	1.385303E+0	1.287193E+0	1.314015E+0	1.328289E+0
2.870190E+2	1.311024E+0	1.304707E+0	1.342500E+0	1.353155E+0	1.285151E+0	1.290469E+0	1.446338E+0	1.344363E+0	1.298498E+0	1.302234E+0	1.339361E+0	1.321368E+0	1.312955E+0	1.324327E+0	1.271702E+0	1.335964E+0	1.336275E+0	1.242240E+0	1.338495E+0	1.303005E+0	1.275005E+0	1.274626E+0	1.330363E+0	1.279429E+0	1.281332E+0	1.270004E+0	1.270075E+0	1.288616E+0	1.324093E+0	1.294511E+0	1.260600E+0	1.280410E+0	1.268584E+0	1.293969E+0	1.305833E+0	1.290804E+0	1.297790E+0	1.250342E+0	1.284799E+0	1.240495E+0	1.272425E+0	1.289868E+0	1.275755E+0	1.299652E+0	1.285426E+0	1.295975E+0	1.320349E+0	1.353359E+0	1.317740E+0	1.268475E+0	1.288149E+0	1.308432E+0	1.276154E+0	1.311086E+0	1.319881E+0	1.295378E+0	1.313528E+0	1.282814E+0	1.346968E+0	1.281424E+0	1.297668E+0	1.287759E+0	1.333350E+0	1.331029E+0	1.353712E+0	1.318954E+0	1.376674E+0	1.281512E+0	1.255725E+0	1.267887E+0	1.269139E+0	1.371962E+0	1.320730E+0	1.296909E+0	1.316285E+0	1.283898E+0	1.340381E+0	1.243463E+0	1.298496E+0	1.288882E+0	1.304559E+0	1.294979E+0	1.344766E+0	1.288959E+0	1.260526E+0	1.314304E+0	1.358818E+0	1.331723E+0	1.277962E+0	1.286307E+0	1.316896E+0	1.317904E+0	1.307984E+0	1.299472E+0	1.362716E+0	1.297430E+0	1.272544E+0	1.278330E+0	1.321953E+0	1.244612E+0	1.295751E+0	1.359084E+0	1.346387E+0	1.254922E+0	1.359469E+0	1.331783E+0	1.348819E+0	1.266698E+0	1.295721E+0	1.299434E+0	1.286620E+0	1.305093E+0	1.342416E+0	1.282275E+0	1.293675E+0	1.292665E+0	1.378435E+0	1.271244E+0	1.352805E+0	1.297152E+0	1.299455E+0	1.301020E+0	1.307619E+0	1.263372E+0	1.400552E+0	1.319160E+0	1.298071E+0	1.260608E+0	1.393012E+0	1.280518E+0	1.307403E+0	1.256483E+0	1.270477E+0	1.323789E+0	1.367001E+0	1.304699E+0	1.393208E+0	1.262569E+0	1.296442E+0	1.305040E+0	1.310861E+0	1.275750E+0	1.356401E+0	1.319082E+0	1.348393E+0	1.342711E+0	1.298376E+0	1.261211E+0	1.287100E+0	1.319060E+0	1.289402E+0	1.311417E+0	1.371649E+0	1.299924E+0	1.375849E+0	1.303535E+0	1.299371E+0	1.316084E+0	1.332002E+0	1.326619E+0	1.326470E+0	1.376274E+0	1.299581E+0	1.320232E+0	1.351051E+0	1.297833E+0	1.443420E+0	1.337807E+0	1.305861E+0	1.252485E+0	1.245683E+0	1.257764E+0
2.872120E+2	1.105129E+0	1.093121E+0	1.112606E+0	1.106419E+0	1.030712E+0	1.082451E+0	1.065782E+0	1.143491E+0	1.095503E+0	1.093927E+0	1.133494E+0	1.109751E+0	1.137116E+0	1.069689E+0	1.128703E+0	1.105582E+0	1.135596E+0	1.070297E+0	1.125830E+0	1.134174E+0	1.120286E+0	1.091746E+0	1.105595E+0	1.101666E+0	1.104918E+0	1.045012E+0	1.091933E+0	1.140585E+0	1.081644E+0	1.091732E+0	1.110238E+0	1.117538E+0	1.151205E+0	1.092021E+0	1.011614E+0	1.145829E+0	1.118907E+0	1.086806E+0	1.141475E+0	1.089253E+0	1.095365E+0	1.114409E+0	1.111624E+0	1.085349E+0	1.154755E+0	1.102312E+0	1.124592E+0	1.133010E+0	1.084404E+0	1.068470E+0	1.121031E+0	1.156618E+0	1.144863E+0	1.123620E+0	1.150475E+0	1.152840E+0	1.084347E+0	1.057163E+0	1.133542E+0	1.122831E+0	1.201360E+0	1.028026E+0	1.167487E+0	1.108381E+0	1.124543E+0	1.128015E+0	1.140234E+0	1.107801E+0	1.106307E+0	1.103486E+0	1.143275E+0	1.146062E+0	1.108199E+0	1.122712E+0	1.063978E+0	1.125522E+0	1.088373E+0	1.079991E+0	1.057962E+0	1.108724E+0	1.090246E+0	1.112677E+0	1.118499E+0	1.126712E+0	1.081704E+0	1.067525E+0	1.157715E+0	1.078754E+0	1.099724E+0	1.082644E+0	1.122697E+0	1.088331E+0	1.135058E+0	1.129123E+0	1.157980E+0	1.108043E+0	1.127739E+0	1.123783E+0	1.066583E+0	1.094106E+0	1.076949E+0	1.101429E+0	1.102321E+0	1.116241E+0	1.064975E+0	1.177647E+0	1.115108E+0	1.140805E+0	1.083582E+0	1.130546E+0	1.070976E+0	1.103284E+0	1.138524E+0	1.068493E+0	1.116657E+0	1.111958E+0	1.097041E+0	1.091387E+0	1.165936E+0	1.108389E+0	1.128861E+0	1.094923E+0	1.188486E+0	1.156374E+0	1.124782E+0	1.127151E+0	1.148767E+0	1.096180E+0	1.121016E+0	1.133307E+0	1.157878E+0	1.135668E+0	1.094968E+0	1.104078E+0	1.169939E+0	1.086769E+0	1.139341E+0	1.090380E+0	1.074309E+0	1.126947E+0	1.138956E+0	1.060109E+0	1.133102E+0	1.062612E+0	1.148390E+0	1.168660E+0	1.078861E+0	1.121568E+0	1.075045E+0	1.097233E+0	1.122727E+0	1.137299E+0	1.068854E+0	1.111363E+0	1.118826E+0	1.124110E+0	1.138647E+0	1.045487E+0	1.084657E+0	1.109051E+0	1.131946E+0	1.067507E+0	1.100673E+0	1.098784E+0	1.126901E+0	1.184543E+0	1.077152E+0	1.125374E+0	1.088025E+0	1.079340E+0	1.075129E+0	1.171648E+0
2.874030E+2	8.455874E-1	8.584865E-1	8.706126E-1	8.104416E-1	8.216698E-1	8.076374E-1	8.839544E-1	8.675683E-1	8.483108E-1	8.433792E-1	9.152970E-1	8.911781E-1	8.380143E-1	8.583295E-1	8.456111E-1	8.959329E-1	8.359792E-1	8.488253E-1	8.249299E-1	8.769745E-1	8.571069E-1	8.211850E-1	8.382376E-1	8.531150E-1	8.573655E-1	8.398232E-1	8.609298E-1	8.442785E-1	8.452650E-1	8.280060E-1	8.170198E-1	9.008110E-1	8.822403E-1	8.493517E-1	8.346216E-1	8.728482E-1	8.723741E-1	8.407668E-1	8.206008E-1	8.415603E-1	8.760816E-1	8.297930E-1	8.759442E-1	8.373791E-1	8.238428E-1	8.382589E-1	8.622330E-1	8.810006E-1	8.103955E-1	8.496590E-1	8.547101E-1	9.164870E-1	8.819736E-1	8.619771E-1	8.474942E-1	8.968260E-1	8.555212E-1	8.304140E-1	8.493393E-1	8.469892E-1	8.717580E-1	8.070347E-1	8.517534E-1	8.894968E-1	8.910592E-1	8.568811E-1	8.482280E-1	8.318234E-1	8.492537E-1	8.324057E-1	8.408769E-1	8.518883E-1	8.889366E-1	8.618667E-1	8.473655E-1	9.276650E-1	8.307479E-1	8.744288E-1	8.701762E-1	8.779063E-1	8.470569E-1	9.011319E-1	8.638325E-1	9.098283E-1	8.608148E-1	8.800381E-1	8.686830E-1	8.885576E-1	8.171110E-1	8.046497E-1	8.520318E-1	8.608620E-1	8.689884E-1	8.938680E-1	8.971010E-1	8.802609E-1	9.050989E-1	8.564585E-1	8.917548E-1	8.767938E-1	8.703395E-1	8.650290E-1	9.290344E-1	8.419757E-1	8.819711E-1	8.286010E-1	8.156552E-1	8.743834E-1	8.831223E-1	8.957521E-1	8.603367E-1	8.543445E-1	9.241925E-1	8.656231E-1	8.963978E-1	8.610384E-1	8.701514E-1	8.926356E-1	8.788398E-1	8.937271E-1	8.391166E-1	8.348555E-1	9.130944E-1	8.626064E-1	9.123224E-1	8.350356E-1	8.765744E-1	8.566013E-1	8.404751E-1	8.947936E-1	9.014247E-1	8.785428E-1	8.267659E-1	8.514420E-1	8.907019E-1	8.174568E-1	9.380669E-1	8.557993E-1	8.784065E-1	8.568409E-1	8.843952E-1	8.384169E-1	8.370587E-1	8.734007E-1	9.205514E-1	8.540307E-1	8.831590E-1	8.021070E-1	8.349883E-1	8.275510E-1	9.151420E-1	8.767459E-1	8.783239E-1	8.503752E-1	8.589082E-1	8.764753E-1	8.456834E-1	8.185579E-1	8.524713E-1	8.448870E-1	8.593999E-1	8.943018E-1	8.503437E-1	8.754059E-1	9.048792E-1	8.933186E-1	9.383065E-1	8.646893E-1	8.542298E-1	7.584299E-1	8.021990E-1	9.514501E-1
2.876120E+2	6.810074E-1	6.251832E-1	6.437936E-1	6.129282E-1	6.080787E-1	6.412790E-1	6.581559E-1	6.647800E-1	6.668884E-1	6.728138E-1	6.299863E-1	6.638405E-1	6.724485E-1	6.479031E-1	6.986418E-1	6.673389E-1	6.808557E-1	6.500209E-1	6.242184E-1	6.514694E-1	6.561006E-1	6.363552E-1	6.415652E-1	6.571496E-1	6.364790E-1	6.467265E-1	6.477359E-1	6.732715E-1	6.577382E-1	6.012088E-1	6.336080E-1	6.839636E-1	6.411823E-1	6.398150E-1	6.327099E-1	6.800173E-1	6.396642E-1	6.387788E-1	6.384036E-1	6.591208E-1	6.078356E-1	6.329734E-1	6.336669E-1	6.702588E-1	6.739672E-1	6.561074E-1	6.548879E-1	6.812136E-1	6.565844E-1	6.673249E-1	6.748129E-1	6.931232E-1	6.437032E-1	6.538434E-1	6.519619E-1	6.691008E-1	6.714263E-1	6.379345E-1	6.603480E-1	6.822595E-1	6.795144E-1	6.668059E-1	6.440907E-1	6.874223E-1	6.855128E-1	6.801322E-1	6.912150E-1	6.707418E-1	6.418500E-1	6.656762E-1	6.686694E-1	6.700301E-1	6.383889E-1	6.935810E-1	6.583989E-1	6.809974E-1	6.894622E-1	6.276164E-1	6.557550E-1	6.682658E-1	6.444788E-1	6.538686E-1	7.108790E-1	6.999645E-1	6.637999E-1	6.234899E-1	6.864308E-1	6.504442E-1	6.575289E-1	6.248811E-1	6.718889E-1	6.730360E-1	6.334928E-1	6.667797E-1	6.570595E-1	6.475454E-1	6.540209E-1	6.647226E-1	6.709868E-1	6.359478E-1	6.406936E-1	6.721447E-1	6.382858E-1	6.697338E-1	6.828448E-1	6.120255E-1	6.666824E-1	6.541724E-1	6.658033E-1	6.339322E-1	6.723500E-1	6.428081E-1	6.820800E-1	6.798835E-1	6.440669E-1	6.558129E-1	6.697780E-1	6.513472E-1	6.635999E-1	6.555023E-1	6.743977E-1	6.348406E-1	7.020323E-1	6.671385E-1	6.538172E-1	6.948577E-1	6.863719E-1	6.761762E-1	6.546647E-1	6.980631E-1	6.394354E-1	6.585230E-1	6.705281E-1	6.930124E-1	7.113310E-1	6.537179E-1	6.679573E-1	6.520019E-1	6.448392E-1	6.625463E-1	6.713317E-1	6.513991E-1	6.890704E-1	6.497158E-1	6.704081E-1	6.764009E-1	6.522452E-1	6.840874E-1	6.302224E-1	6.711068E-1	6.570628E-1	6.978269E-1	6.844027E-1	6.881954E-1	7.010217E-1	7.338249E-1	7.136772E-1	6.807149E-1	6.725423E-1	6.790602E-1	7.195305E-1	6.671944E-1	6.532732E-1	6.385767E-1	7.088938E-1	6.168966E-1	6.784502E-1	6.432114E-1	6.819317E-1	6.303775E-1	6.657537E-1	6.380384E-1
2.878030E+2	6.872117E-1	7.135432E-1	7.203731E-1	7.003220E-1	7.069390E-1	7.441913E-1	7.149773E-1	6.933911E-1	6.997513E-1	7.186872E-1	7.176974E-1	7.167191E-1	7.467499E-1	7.359417E-1	6.865862E-1	7.068271E-1	7.042802E-1	6.881929E-1	7.162162E-1	7.472070E-1	7.219975E-1	6.994818E-1	7.002905E-1	6.929699E-1	6.707668E-1	7.471600E-1	7.019500E-1	7.129780E-1	7.627583E-1	7.041025E-1	7.017052E-1	7.150087E-1	7.354334E-1	7.354911E-1	6.925435E-1	6.954719E-1	7.228029E-1	7.143439E-1	7.061673E-1	7.565708E-1	7.475074E-1	6.887845E-1	7.134601E-1	7.182062E-1	6.960627E-1	6.976288E-1	7.364407E-1	7.441348E-1	6.899196E-1	7.131320E-1	7.373363E-1	7.287078E-1	7.222046E-1	7.204867E-1	7.239943E-1	6.993442E-1	7.623643E-1	7.164800E-1	7.148990E-1	7.263128E-1	7.520854E-1	6.798567E-1	6.970560E-1	7.359061E-1	7.490299E-1	6.783281E-1	6.773258E-1	6.967742E-1	7.330574E-1	7.198383E-1	7.157980E-1	7.594399E-1	7.580707E-1	7.319046E-1	6.724617E-1	6.861406E-1	7.491503E-1	7.186057E-1	6.875693E-1	7.335757E-1	7.477591E-1	7.477885E-1	6.933512E-1	7.707203E-1	7.208355E-1	7.331092E-1	7.502373E-1	7.291986E-1	6.913506E-1	7.077508E-1	7.192730E-1	7.507654E-1	7.337421E-1	7.122339E-1	7.240569E-1	7.361843E-1	6.883736E-1	7.252358E-1	7.322717E-1	7.136280E-1	7.652496E-1	7.489931E-1	7.042819E-1	7.562264E-1	7.636677E-1	7.312240E-1	6.762370E-1	6.700526E-1	7.507960E-1	7.375434E-1	7.102252E-1	7.416657E-1	7.378326E-1	7.010016E-1	7.482041E-1	7.063272E-1	7.357475E-1	7.702769E-1	7.492897E-1	7.684779E-1	7.371259E-1	7.829310E-1	7.089753E-1	7.461516E-1	7.147262E-1	7.424758E-1	7.427901E-1	7.484477E-1	7.523646E-1	7.403367E-1	7.242506E-1	7.259686E-1	7.483882E-1	7.198433E-1	7.292379E-1	7.005359E-1	7.167447E-1	7.065381E-1	7.630498E-1	7.653686E-1	7.806064E-1	7.059778E-1	7.293789E-1	7.462126E-1	7.410280E-1	7.144499E-1	7.645057E-1	7.374911E-1	7.155765E-1	7.075367E-1	7.582216E-1	7.070333E-1	6.954866E-1	7.239737E-1	6.708165E-1	7.673181E-1	7.308941E-1	7.279233E-1	7.473466E-1	7.509047E-1	7.444133E-1	7.319945E-1	7.022893E-1	6.837503E-1	6.894503E-1	7.601209E-1	7.207200E-1	7.325317E-1	7.410012E-1	7.372487E-1	7.130132E-1	8.478841E-1
2.880040E+2	7.864290E-1	7.888581E-1	7.857783E-1	8.310582E-1	7.122059E-1	7.621260E-1	7.822409E-1	7.960434E-1	8.193997E-1	7.771613E-1	7.471753E-1	8.123900E-1	7.587566E-1	7.297384E-1	7.327509E-1	7.956023E-1	7.618308E-1	7.691485E-1	7.702089E-1	7.840015E-1	7.573470E-1	7.668062E-1	7.238563E-1	7.799135E-1	7.401010E-1	7.977675E-1	7.331703E-1	7.933403E-1	7.789078E-1	7.534363E-1	7.859699E-1	7.557352E-1	8.255860E-1	8.084853E-1	7.380060E-1	7.263003E-1	7.608704E-1	7.722978E-1	7.531329E-1	7.839443E-1	7.554934E-1	7.616910E-1	7.426312E-1	7.158139E-1	7.712440E-1	7.552418E-1	7.831736E-1	7.588291E-1	7.646574E-1	7.347913E-1	8.066014E-1	7.971854E-1	7.842827E-1	7.631207E-1	8.093628E-1	8.019810E-1	7.380809E-1	7.593871E-1	7.632836E-1	7.604629E-1	8.129436E-1	7.946936E-1	7.338528E-1	7.464086E-1	8.105870E-1	7.539136E-1	7.710790E-1	7.566802E-1	8.024354E-1	7.689933E-1	8.258838E-1	7.605887E-1	7.632260E-1	7.845851E-1	7.591896E-1	7.805950E-1	7.966384E-1	7.777871E-1	8.062665E-1	7.886983E-1	8.024945E-1	7.520251E-1	8.260597E-1	7.809499E-1	7.394343E-1	7.917552E-1	7.459460E-1	8.199056E-1	7.329628E-1	7.497147E-1	8.198534E-1	8.500097E-1	8.101111E-1	8.039058E-1	7.468911E-1	7.739693E-1	7.777232E-1	7.739647E-1	7.788950E-1	7.938086E-1	7.753756E-1	7.877106E-1	7.773648E-1	8.165890E-1	8.285636E-1	7.878786E-1	7.611820E-1	8.046856E-1	7.543193E-1	7.661081E-1	7.684444E-1	7.958118E-1	7.878870E-1	7.733886E-1	7.231780E-1	7.935307E-1	7.842715E-1	7.737261E-1	7.456785E-1	8.145720E-1	7.589074E-1	8.041062E-1	8.494229E-1	8.215962E-1	7.695374E-1	8.143154E-1	7.763260E-1	7.588822E-1	8.646467E-1	8.165486E-1	7.828899E-1	7.703496E-1	7.773884E-1	7.875238E-1	7.452786E-1	7.144965E-1	7.585799E-1	7.834995E-1	7.639966E-1	8.250798E-1	8.061298E-1	7.586075E-1	7.652816E-1	7.835255E-1	7.848246E-1	8.114954E-1	7.421704E-1	7.782022E-1	7.528348E-1	7.740711E-1	8.367604E-1	7.736311E-1	7.495541E-1	8.095643E-1	7.852108E-1	7.665816E-1	8.350162E-1	7.776689E-1	7.678356E-1	7.404651E-1	8.047790E-1	7.577010E-1	7.600283E-1	7.493036E-1	8.363986E-1	7.984536E-1	8.264951E-1	8.166935E-1	8.031358E-1	7.402186E-1	8.589793E-1	7.601338E-1
2.882200E+2	8.144495E-1	7.446229E-1	8.329463E-1	7.498533E-1	7.721595E-1	7.970594E-1	7.590347E-1	7.508035E-1	7.746145E-1	8.104117E-1	8.039475E-1	8.084739E-1	7.962674E-1	8.023288E-1	7.244127E-1	8.141419E-1	7.509132E-1	7.344290E-1	7.450195E-1	7.870857E-1	7.914953E-1	7.685548E-1	7.331201E-1	7.660215E-1	7.779056E-1	7.599765E-1	7.613909E-1	7.969820E-1	8.118918E-1	7.944840E-1	7.861801E-1	7.740660E-1	8.387399E-1	7.876986E-1	7.385340E-1	7.986761E-1	8.020277E-1	7.765862E-1	7.928521E-1	7.995366E-1	7.867130E-1	7.870284E-1	7.490318E-1	7.032670E-1	7.981905E-1	7.718602E-1	7.610313E-1	8.268079E-1	7.487660E-1	7.764626E-1	7.614069E-1	8.018186E-1	8.019548E-1	8.022437E-1	7.653347E-1	7.991280E-1	7.611288E-1	7.867928E-1	7.289695E-1	7.956143E-1	8.302660E-1	8.323870E-1	7.261679E-1	7.926299E-1	8.618820E-1	7.647877E-1	7.827827E-1	7.940553E-1	7.608070E-1	7.947211E-1	7.825746E-1	8.064814E-1	7.949349E-1	7.889289E-1	7.750627E-1	7.725855E-1	7.731911E-1	7.778747E-1	7.337656E-1	7.909269E-1	7.602936E-1	8.267574E-1	7.657452E-1	7.587065E-1	7.595099E-1	8.062168E-1	7.944230E-1	8.173081E-1	7.127453E-1	7.955764E-1	7.136217E-1	7.832783E-1	8.212651E-1	8.090092E-1	7.653123E-1	7.803786E-1	8.502478E-1	7.438233E-1	7.809206E-1	8.200364E-1	7.796639E-1	8.259046E-1	7.995021E-1	8.186505E-1	7.793390E-1	7.801810E-1	7.726151E-1	7.420740E-1	7.668167E-1	7.906433E-1	8.218797E-1	7.641965E-1	7.676570E-1	8.074566E-1	8.196483E-1	7.634791E-1	7.609088E-1	7.914081E-1	8.138660E-1	7.779071E-1	7.649006E-1	7.881891E-1	7.789739E-1	7.869228E-1	8.373043E-1	7.857983E-1	8.149038E-1	7.551567E-1	7.798048E-1	7.715193E-1	7.723314E-1	7.568175E-1	7.659291E-1	8.015126E-1	7.705594E-1	8.094093E-1	8.415146E-1	7.570328E-1	7.965762E-1	8.249658E-1	8.030627E-1	7.541826E-1	7.726884E-1	8.187726E-1	8.202525E-1	8.004291E-1	7.701267E-1	8.144396E-1	7.515875E-1	8.588336E-1	8.264914E-1	7.807350E-1	7.648987E-1	7.897197E-1	7.984204E-1	7.992583E-1	7.909772E-1	8.173702E-1	7.765284E-1	7.533857E-1	8.234116E-1	7.830179E-1	8.157434E-1	8.574141E-1	7.703838E-1	7.619610E-1	8.151748E-1	7.920443E-1	7.756472E-1	7.457249E-1	8.472161E-1	8.596532E-1
2.884090E+2	8.436300E-1	8.893499E-1	8.625586E-1	9.047399E-1	9.008168E-1	8.643600E-1	8.894413E-1	8.824307E-1	8.280160E-1	8.459181E-1	8.672306E-1	8.254313E-1	8.797557E-1	9.196122E-1	8.275536E-1	9.035292E-1	8.488287E-1	8.497373E-1	8.215387E-1	8.787546E-1	8.551933E-1	8.304302E-1	8.569243E-1	8.798971E-1	8.250644E-1	8.371307E-1	8.589040E-1	9.189196E-1	8.713333E-1	8.865022E-1	8.803759E-1	8.713543E-1	8.323652E-1	8.685435E-1	8.333377E-1	8.670077E-1	8.988919E-1	8.516591E-1	8.394951E-1	8.764399E-1	8.761350E-1	8.670568E-1	8.467788E-1	8.706205E-1	8.983851E-1	8.717528E-1	8.759588E-1	8.863844E-1	8.690120E-1	8.537533E-1	8.620849E-1	8.798925E-1	8.741030E-1	8.904319E-1	9.030627E-1	8.887568E-1	8.795267E-1	8.642759E-1	8.268817E-1	8.725741E-1	9.094450E-1	8.264524E-1	8.546356E-1	8.900192E-1	8.593720E-1	8.625395E-1	8.887274E-1	9.036187E-1	8.713627E-1	8.429604E-1	8.833435E-1	8.865849E-1	8.689659E-1	8.869526E-1	8.587886E-1	8.612377E-1	8.912973E-1	8.266438E-1	8.510285E-1	8.525449E-1	8.417289E-1	8.786934E-1	8.815271E-1	8.954236E-1	8.346961E-1	8.943288E-1	8.594461E-1	8.721876E-1	8.684327E-1	8.308152E-1	8.355278E-1	8.169957E-1	8.245224E-1	8.523637E-1	8.561791E-1	8.937035E-1	8.796181E-1	8.322642E-1	8.624204E-1	8.653918E-1	8.699847E-1	8.613305E-1	8.433469E-1	9.014432E-1	8.584696E-1	8.985661E-1	8.578063E-1	8.840855E-1	8.917213E-1	8.761096E-1	8.459958E-1	8.327143E-1	8.983706E-1	8.784002E-1	8.985971E-1	8.834565E-1	8.352834E-1	8.719652E-1	9.233926E-1	8.338574E-1	8.067365E-1	8.977171E-1	9.053557E-1	9.481863E-1	8.573018E-1	8.968495E-1	8.548049E-1	8.946896E-1	8.685632E-1	8.563714E-1	8.570754E-1	8.552544E-1	8.260732E-1	8.645687E-1	8.999150E-1	8.526675E-1	8.652069E-1	8.368675E-1	8.795611E-1	8.660313E-1	8.612926E-1	8.702893E-1	9.106989E-1	8.551775E-1	9.584821E-1	8.972494E-1	8.732493E-1	8.900471E-1	8.407414E-1	8.597696E-1	8.753400E-1	8.636523E-1	8.408886E-1	9.166471E-1	8.192746E-1	9.057814E-1	8.797502E-1	8.828015E-1	8.520116E-1	8.787218E-1	9.080827E-1	8.584105E-1	8.823453E-1	8.654086E-1	8.933238E-1	9.129037E-1	9.230468E-1	8.664882E-1	8.494532E-1	7.416632E-1	9.296654E-1	8.459369E-1
2.886010E+2	1.146066E+0	1.093488E+0	1.207115E+0	1.157797E+0	1.102756E+0	1.094580E+0	1.093144E+0	1.154320E+0	1.128858E+0	1.141527E+0	1.171341E+0	1.189041E+0	1.127971E+0	1.088535E+0	1.104659E+0	1.119318E+0	1.122946E+0	1.119297E+0	1.084231E+0	1.167855E+0	1.167036E+0	1.121669E+0	1.143281E+0	1.143828E+0	1.110173E+0	1.158797E+0	1.117442E+0	1.159914E+0	1.152517E+0	1.159584E+0	1.143126E+0	1.128788E+0	1.158099E+0	1.175556E+0	1.112918E+0	1.137685E+0	1.147798E+0	1.127582E+0	1.157007E+0	1.165168E+0	1.163266E+0	1.115069E+0	1.147259E+0	1.183789E+0	1.204093E+0	1.186166E+0	1.117891E+0	1.148058E+0	1.104312E+0	1.150131E+0	1.109651E+0	1.182258E+0	1.095223E+0	1.154159E+0	1.200340E+0	1.216742E+0	1.116491E+0	1.119556E+0	1.101685E+0	1.133632E+0	1.181542E+0	1.098485E+0	1.133678E+0	1.101437E+0	1.179667E+0	1.215398E+0	1.118181E+0	1.118901E+0	1.107488E+0	1.187994E+0	1.112848E+0	1.184988E+0	1.126269E+0	1.139360E+0	1.086584E+0	1.198836E+0	1.132201E+0	1.160651E+0	1.192381E+0	1.128680E+0	1.132512E+0	1.077022E+0	1.159235E+0	1.120794E+0	1.142358E+0	1.174968E+0	1.123114E+0	1.135331E+0	1.112506E+0	1.116576E+0	1.155317E+0	1.179035E+0	1.158752E+0	1.135149E+0	1.190368E+0	1.157487E+0	1.107435E+0	1.099756E+0	1.158866E+0	1.106148E+0	1.157409E+0	1.156113E+0	1.157590E+0	1.168022E+0	1.124193E+0	1.165933E+0	1.120830E+0	1.118857E+0	1.109699E+0	1.127298E+0	1.179393E+0	1.133497E+0	1.173484E+0	1.147813E+0	1.124728E+0	1.189381E+0	1.165980E+0	1.144644E+0	1.132536E+0	1.158952E+0	1.142732E+0	1.136054E+0	1.184965E+0	1.133629E+0	1.171618E+0	1.186458E+0	1.144128E+0	1.156784E+0	1.261246E+0	1.092504E+0	1.174049E+0	1.150311E+0	1.159213E+0	1.228604E+0	1.145314E+0	1.169058E+0	1.140666E+0	1.104536E+0	1.099298E+0	1.161851E+0	1.190143E+0	1.160698E+0	1.188351E+0	1.156614E+0	1.196364E+0	1.161412E+0	1.130867E+0	1.147559E+0	1.113331E+0	1.148059E+0	1.194163E+0	1.207768E+0	1.112190E+0	1.163829E+0	1.168052E+0	1.177350E+0	1.157540E+0	1.145123E+0	1.198636E+0	1.100571E+0	1.135317E+0	1.157797E+0	1.195599E+0	1.144617E+0	1.128985E+0	1.157536E+0	1.135119E+0	1.218389E+0	1.167811E+0	1.126233E+0	1.075450E+0	1.067920E+0
2.888170E+2	1.238666E+0	1.217315E+0	1.189507E+0	1.252022E+0	1.196777E+0	1.185169E+0	1.235260E+0	1.206880E+0	1.209156E+0	1.229002E+0	1.240524E+0	1.233540E+0	1.204381E+0	1.243800E+0	1.182255E+0	1.241193E+0	1.231030E+0	1.214947E+0	1.199501E+0	1.180533E+0	1.215035E+0	1.219330E+0	1.199620E+0	1.277020E+0	1.228222E+0	1.197082E+0	1.206757E+0	1.237095E+0	1.237194E+0	1.238785E+0	1.200669E+0	1.175238E+0	1.263074E+0	1.193460E+0	1.177942E+0	1.178061E+0	1.211456E+0	1.190682E+0	1.183641E+0	1.207977E+0	1.206452E+0	1.257982E+0	1.206603E+0	1.265317E+0	1.182550E+0	1.203922E+0	1.179548E+0	1.235145E+0	1.237856E+0	1.201169E+0	1.133019E+0	1.251938E+0	1.206158E+0	1.202344E+0	1.221418E+0	1.233834E+0	1.192718E+0	1.226373E+0	1.251454E+0	1.297725E+0	1.212550E+0	1.195250E+0	1.188129E+0	1.276973E+0	1.249566E+0	1.217980E+0	1.175745E+0	1.204997E+0	1.237951E+0	1.209191E+0	1.163372E+0	1.221024E+0	1.246647E+0	1.197285E+0	1.189760E+0	1.257046E+0	1.191965E+0	1.199073E+0	1.178638E+0	1.202427E+0	1.311545E+0	1.189713E+0	1.131912E+0	1.251501E+0	1.157497E+0	1.195018E+0	1.260899E+0	1.217664E+0	1.184573E+0	1.177740E+0	1.205307E+0	1.251806E+0	1.248592E+0	1.200543E+0	1.186522E+0	1.238565E+0	1.194861E+0	1.229347E+0	1.248027E+0	1.203022E+0	1.315938E+0	1.211152E+0	1.267304E+0	1.258248E+0	1.247755E+0	1.205724E+0	1.184248E+0	1.242826E+0	1.280725E+0	1.221434E+0	1.209302E+0	1.289468E+0	1.240966E+0	1.208622E+0	1.197603E+0	1.197158E+0	1.222180E+0	1.191440E+0	1.237671E+0	1.238718E+0	1.213426E+0	1.217705E+0	1.241443E+0	1.239983E+0	1.265782E+0	1.170095E+0	1.216381E+0	1.218259E+0	1.283778E+0	1.163804E+0	1.219292E+0	1.211669E+0	1.251942E+0	1.234536E+0	1.198048E+0	1.192195E+0	1.235466E+0	1.209536E+0	1.233708E+0	1.273451E+0	1.195611E+0	1.183832E+0	1.199610E+0	1.234522E+0	1.263574E+0	1.213279E+0	1.227169E+0	1.233650E+0	1.224539E+0	1.254336E+0	1.255035E+0	1.190380E+0	1.263343E+0	1.269038E+0	1.244855E+0	1.315322E+0	1.237169E+0	1.167125E+0	1.213019E+0	1.208100E+0	1.250464E+0	1.200288E+0	1.231963E+0	1.252014E+0	1.209712E+0	1.271557E+0	1.171673E+0	1.236966E+0	1.305836E+0	1.202145E+0	1.230716E+0	1.175030E+0
2.890140E+2	1.068510E+0	1.053377E+0	1.068889E+0	1.021879E+0	1.055645E+0	1.035912E+0	1.067789E+0	1.163920E+0	9.834255E-1	1.028215E+0	1.027392E+0	1.074447E+0	1.047388E+0	1.063236E+0	1.023179E+0	1.111887E+0	1.055524E+0	1.072288E+0	1.093198E+0	1.052958E+0	1.133960E+0	1.042249E+0	1.079481E+0	1.120529E+0	1.059106E+0	1.012716E+0	1.048407E+0	1.110359E+0	1.046434E+0	1.106066E+0	1.041647E+0	1.066982E+0	1.060489E+0	1.067330E+0	1.021634E+0	1.057396E+0	1.119839E+0	1.059943E+0	1.062139E+0	1.054182E+0	1.060331E+0	1.069667E+0	1.063152E+0	1.053626E+0	1.043601E+0	1.070362E+0	1.083307E+0	1.095165E+0	1.060026E+0	1.070343E+0	1.083138E+0	1.087676E+0	1.072694E+0	1.047208E+0	1.097531E+0	1.124445E+0	1.018525E+0	1.060980E+0	1.043699E+0	1.123797E+0	1.117011E+0	1.070224E+0	9.967636E-1	1.107478E+0	1.101062E+0	1.055847E+0	1.085704E+0	1.060747E+0	1.076631E+0	1.031443E+0	1.047384E+0	1.137574E+0	1.119219E+0	1.057163E+0	1.078452E+0	1.088458E+0	1.104878E+0	1.060856E+0	1.029677E+0	1.097308E+0	1.055736E+0	1.066603E+0	1.089316E+0	1.090637E+0	1.049498E+0	1.050178E+0	1.081667E+0	1.077812E+0	1.087478E+0	1.050343E+0	1.100533E+0	1.072426E+0	1.053019E+0	1.074723E+0	1.104774E+0	1.084334E+0	1.079174E+0	1.026926E+0	1.038998E+0	1.063134E+0	1.068918E+0	1.051380E+0	1.102349E+0	1.096984E+0	1.125444E+0	1.078519E+0	1.057891E+0	1.127012E+0	1.059999E+0	1.073564E+0	1.070011E+0	1.064791E+0	1.062024E+0	1.096904E+0	1.021191E+0	1.113114E+0	1.037489E+0	1.090664E+0	1.062858E+0	1.124079E+0	1.097993E+0	1.054994E+0	1.147038E+0	1.034323E+0	1.075464E+0	1.117201E+0	1.070098E+0	1.053501E+0	1.121389E+0	1.086824E+0	1.042167E+0	1.069590E+0	9.933343E-1	1.096260E+0	1.082863E+0	1.038700E+0	1.076160E+0	1.033764E+0	1.069983E+0	1.103748E+0	1.071368E+0	1.014561E+0	1.078533E+0	1.119791E+0	1.102510E+0	1.039561E+0	1.029912E+0	1.074700E+0	1.066492E+0	1.078177E+0	1.028570E+0	1.111297E+0	1.053076E+0	1.073036E+0	1.103770E+0	1.147648E+0	1.083779E+0	1.038644E+0	1.078776E+0	1.038875E+0	1.120583E+0	1.072209E+0	1.057348E+0	1.071159E+0	1.075752E+0	1.092344E+0	1.074091E+0	1.107412E+0	1.089167E+0	1.035183E+0	1.021793E+0	1.103841E+0
2.892040E+2	8.503391E-1	8.800746E-1	8.649260E-1	8.544042E-1	8.477760E-1	8.981949E-1	8.644246E-1	8.505176E-1	8.140386E-1	8.408351E-1	8.473249E-1	8.464108E-1	8.366007E-1	8.014524E-1	8.297375E-1	8.956733E-1	8.100530E-1	8.500531E-1	8.395759E-1	8.728838E-1	8.362628E-1	8.123410E-1	8.992347E-1	9.109422E-1	8.378969E-1	8.292057E-1	8.076433E-1	8.515056E-1	8.503190E-1	8.965416E-1	8.818755E-1	8.569373E-1	8.701966E-1	8.558543E-1	8.287333E-1	8.134161E-1	8.866188E-1	8.268096E-1	8.036225E-1	9.185102E-1	8.695784E-1	8.509609E-1	8.639786E-1	8.817255E-1	9.030190E-1	8.277517E-1	8.493493E-1	9.117843E-1	8.297405E-1	8.583295E-1	8.004204E-1	8.136808E-1	8.679590E-1	8.304282E-1	8.475532E-1	8.383909E-1	8.288377E-1	8.298385E-1	8.371754E-1	9.015094E-1	8.695314E-1	8.193261E-1	8.335816E-1	8.495777E-1	8.903499E-1	8.651931E-1	8.455701E-1	8.878098E-1	8.490428E-1	8.870839E-1	8.559610E-1	8.144924E-1	8.305368E-1	8.365011E-1	8.434009E-1	8.871177E-1	8.585878E-1	8.244994E-1	8.550516E-1	8.153149E-1	8.884067E-1	8.454347E-1	8.659018E-1	8.969581E-1	8.808766E-1	8.235122E-1	8.951495E-1	8.700686E-1	8.672395E-1	8.354958E-1	8.288649E-1	8.972808E-1	9.081010E-1	8.557438E-1	8.376799E-1	8.357200E-1	8.521780E-1	8.474045E-1	8.528773E-1	8.509060E-1	8.746479E-1	8.598135E-1	8.585242E-1	8.325567E-1	8.448599E-1	8.750425E-1	8.428452E-1	8.621139E-1	8.184159E-1	8.438027E-1	8.517556E-1	9.401282E-1	8.712569E-1	8.616679E-1	8.626827E-1	8.776136E-1	8.404479E-1	9.011600E-1	8.372423E-1	8.384527E-1	8.592162E-1	8.598655E-1	9.113687E-1	8.131426E-1	8.655990E-1	8.665404E-1	8.205471E-1	8.648396E-1	8.656749E-1	8.923207E-1	8.366512E-1	9.188839E-1	8.557562E-1	8.588420E-1	8.647707E-1	8.592025E-1	8.962358E-1	8.678997E-1	8.261260E-1	8.794889E-1	8.194534E-1	8.706807E-1	8.445786E-1	8.582140E-1	8.717396E-1	9.330912E-1	8.267943E-1	8.475218E-1	8.356750E-1	8.328967E-1	8.147138E-1	8.238344E-1	8.622885E-1	9.119021E-1	8.542209E-1	8.167413E-1	8.644090E-1	8.808628E-1	8.738930E-1	8.425221E-1	9.141205E-1	8.695998E-1	7.922863E-1	8.600410E-1	8.418768E-1	9.075651E-1	8.316542E-1	8.963385E-1	8.698575E-1	8.577538E-1	7.690691E-1	8.814960E-1
2.894050E+2	8.207654E-1	8.622728E-1	8.977992E-1	8.890175E-1	9.017984E-1	8.673015E-1	8.784767E-1	8.546848E-1	8.313931E-1	7.855537E-1	8.044001E-1	8.712538E-1	8.250436E-1	8.636374E-1	8.682873E-1	8.321038E-1	8.439225E-1	8.333750E-1	8.493526E-1	8.510615E-1	8.590266E-1	8.588382E-1	8.942227E-1	8.437697E-1	8.427952E-1	8.645235E-1	8.132689E-1	8.446670E-1	8.461414E-1	8.474120E-1	8.796140E-1	8.743281E-1	8.111517E-1	7.944226E-1	8.544879E-1	8.508400E-1	8.506609E-1	8.243527E-1	8.501948E-1	8.678358E-1	8.061830E-1	8.274284E-1	8.425564E-1	8.733847E-1	8.937243E-1	8.486833E-1	8.392291E-1	8.891873E-1	8.728168E-1	8.217357E-1	8.713035E-1	8.649033E-1	8.760999E-1	8.661195E-1	8.657584E-1	8.891144E-1	8.513452E-1	8.444525E-1	8.576642E-1	8.620069E-1	9.102537E-1	8.463564E-1	8.589461E-1	8.498757E-1	8.950567E-1	8.584747E-1	8.444455E-1	8.631772E-1	8.049802E-1	8.598509E-1	8.219016E-1	9.333008E-1	8.657413E-1	8.599554E-1	8.530373E-1	8.664362E-1	9.013282E-1	8.761264E-1	8.511668E-1	8.470847E-1	8.659658E-1	8.948378E-1	8.674882E-1	9.116387E-1	8.658453E-1	8.843745E-1	8.615990E-1	9.011704E-1	8.611030E-1	8.405030E-1	8.700382E-1	8.626075E-1	8.846340E-1	8.689000E-1	8.623966E-1	9.254841E-1	8.582944E-1	8.651984E-1	8.770094E-1	8.651369E-1	9.107656E-1	8.345630E-1	8.883429E-1	8.843154E-1	9.045339E-1	8.620758E-1	8.488057E-1	8.618565E-1	8.716112E-1	8.595497E-1	8.856954E-1	8.078523E-1	9.164458E-1	8.500533E-1	8.616044E-1	9.014506E-1	8.439594E-1	9.089142E-1	8.772803E-1	8.948415E-1	9.466194E-1	8.451193E-1	8.775318E-1	8.953958E-1	8.516837E-1	8.737000E-1	8.545562E-1	9.008614E-1	8.852451E-1	8.660337E-1	8.612196E-1	9.083574E-1	8.478310E-1	8.463481E-1	8.982974E-1	8.653213E-1	9.078497E-1	8.604708E-1	8.317947E-1	9.449820E-1	9.103654E-1	8.683997E-1	8.562328E-1	8.534268E-1	8.532089E-1	9.109520E-1	8.407817E-1	8.954879E-1	8.401632E-1	8.944058E-1	9.116678E-1	9.003501E-1	8.860574E-1	8.598888E-1	8.880506E-1	9.494672E-1	8.618396E-1	8.307710E-1	8.538864E-1	8.748841E-1	8.870381E-1	9.100418E-1	8.594234E-1	8.560041E-1	8.690340E-1	8.629838E-1	8.753560E-1	8.729857E-1	8.551587E-1	7.921322E-1	8.867880E-1	8.118965E-1
2.896080E+2	9.143261E-1	8.776735E-1	9.111251E-1	9.193828E-1	8.575238E-1	8.904666E-1	8.994320E-1	8.844295E-1	8.776050E-1	9.099527E-1	9.383595E-1	9.029519E-1	9.425080E-1	9.250366E-1	8.479086E-1	8.747372E-1	9.034202E-1	8.969009E-1	8.367958E-1	8.862541E-1	8.814349E-1	8.888305E-1	8.490768E-1	8.750329E-1	8.991681E-1	8.755488E-1	8.756780E-1	8.976553E-1	8.695727E-1	8.839981E-1	8.571720E-1	9.058546E-1	9.113839E-1	8.923383E-1	8.695510E-1	8.842682E-1	9.194365E-1	9.054873E-1	9.033368E-1	8.813835E-1	8.630813E-1	9.223381E-1	8.809863E-1	8.659436E-1	9.245561E-1	9.025899E-1	8.488573E-1	9.388721E-1	9.190486E-1	9.101738E-1	8.564197E-1	9.292901E-1	9.078566E-1	9.264630E-1	8.985649E-1	9.160813E-1	8.876757E-1	8.876921E-1	9.198470E-1	8.653455E-1	9.388676E-1	9.527227E-1	8.615876E-1	9.000937E-1	9.567526E-1	8.871858E-1	8.835241E-1	9.072867E-1	8.890637E-1	8.957624E-1	8.979795E-1	9.378950E-1	9.183593E-1	8.593956E-1	8.656615E-1	9.038038E-1	9.413775E-1	8.624552E-1	8.977104E-1	8.960060E-1	8.969231E-1	9.253254E-1	8.993575E-1	9.404958E-1	9.091077E-1	8.624805E-1	9.024270E-1	9.077800E-1	8.467777E-1	8.743064E-1	9.188975E-1	8.986113E-1	8.821295E-1	9.028052E-1	8.849588E-1	9.226772E-1	9.544851E-1	9.007030E-1	8.757958E-1	9.181710E-1	8.405252E-1	9.032718E-1	9.373319E-1	9.219503E-1	9.419787E-1	8.674385E-1	8.577869E-1	8.837259E-1	8.848416E-1	8.670372E-1	9.212048E-1	8.755953E-1	9.279024E-1	9.222517E-1	8.864483E-1	9.168068E-1	8.779909E-1	8.806485E-1	9.483019E-1	8.766169E-1	9.453182E-1	9.146406E-1	9.376881E-1	9.091190E-1	9.183181E-1	8.353137E-1	9.556939E-1	9.305303E-1	8.742848E-1	9.473903E-1	9.145751E-1	9.240174E-1	9.527399E-1	8.898066E-1	9.313263E-1	9.250732E-1	9.135898E-1	9.011313E-1	8.915264E-1	9.489217E-1	8.959656E-1	9.173512E-1	9.141723E-1	9.015790E-1	9.516284E-1	9.293073E-1	8.914432E-1	8.742834E-1	8.469052E-1	8.913569E-1	8.833265E-1	9.562747E-1	8.828432E-1	9.068016E-1	9.483931E-1	9.108603E-1	8.846118E-1	8.863496E-1	9.147254E-1	8.808790E-1	9.628678E-1	8.985003E-1	9.266474E-1	9.172666E-1	9.342961E-1	9.698588E-1	9.033673E-1	9.224468E-1	8.676172E-1	8.812271E-1	8.866538E-1	9.255671E-1
2.898030E+2	8.905790E-1	8.483571E-1	8.065853E-1	8.614808E-1	8.574440E-1	8.801863E-1	8.803791E-1	8.516975E-1	8.146444E-1	8.758107E-1	9.095171E-1	8.458562E-1	8.028103E-1	8.583702E-1	8.606228E-1	8.233878E-1	8.447461E-1	8.358427E-1	8.482486E-1	8.799204E-1	8.507164E-1	8.847638E-1	8.211286E-1	8.601869E-1	8.687465E-1	8.522590E-1	8.391692E-1	8.175167E-1	8.716691E-1	8.469318E-1	8.234199E-1	8.679443E-1	8.868925E-1	8.406388E-1	8.436897E-1	8.623803E-1	9.005621E-1	8.396458E-1	8.550403E-1	8.639033E-1	8.501668E-1	8.709382E-1	8.185241E-1	7.919482E-1	8.543795E-1	8.848175E-1	8.303603E-1	8.536843E-1	8.404259E-1	8.179255E-1	7.897626E-1	8.558298E-1	8.613915E-1	8.462858E-1	8.404823E-1	8.949119E-1	8.778657E-1	9.116094E-1	8.566588E-1	8.474416E-1	8.417669E-1	8.395980E-1	8.027199E-1	8.278208E-1	8.969664E-1	8.515168E-1	8.732712E-1	8.484053E-1	8.804964E-1	8.510315E-1	8.476007E-1	8.823957E-1	8.361882E-1	8.622951E-1	8.380583E-1	8.644390E-1	9.212767E-1	8.597448E-1	8.546485E-1	7.987941E-1	8.503671E-1	8.528420E-1	8.906557E-1	8.497160E-1	8.386110E-1	8.535675E-1	8.666095E-1	8.771219E-1	8.744009E-1	8.664182E-1	8.647941E-1	8.785910E-1	9.014887E-1	8.422961E-1	8.778695E-1	8.661173E-1	8.512471E-1	8.052041E-1	8.992435E-1	8.252452E-1	9.176780E-1	8.498163E-1	8.637477E-1	8.753887E-1	8.984962E-1	8.808566E-1	8.717781E-1	8.526409E-1	8.519945E-1	8.502492E-1	8.086783E-1	8.383560E-1	9.171206E-1	8.434547E-1	8.844655E-1	8.851203E-1	8.775311E-1	8.352714E-1	8.703778E-1	8.852409E-1	8.414280E-1	9.177671E-1	8.448075E-1	8.846292E-1	8.653563E-1	8.830563E-1	8.797939E-1	8.699987E-1	9.013193E-1	8.548573E-1	8.696295E-1	8.597683E-1	8.896290E-1	8.928609E-1	8.856003E-1	8.847350E-1	8.812477E-1	8.376367E-1	8.851669E-1	8.860737E-1	8.990925E-1	8.673142E-1	8.490558E-1	8.710737E-1	9.188646E-1	9.209657E-1	8.785630E-1	8.821940E-1	9.067122E-1	8.488365E-1	8.522645E-1	8.964162E-1	8.555295E-1	9.068871E-1	8.628350E-1	9.136703E-1	8.903192E-1	8.769157E-1	8.732427E-1	8.565831E-1	8.633916E-1	8.507876E-1	8.970379E-1	8.549532E-1	8.560619E-1	8.875735E-1	8.555690E-1	8.996877E-1	9.253360E-1	8.404146E-1	8.663638E-1	9.687858E-1
2.900020E+2	7.479417E-1	8.234828E-1	7.450596E-1	7.523369E-1	7.687429E-1	8.174612E-1	7.788889E-1	7.682877E-1	7.847633E-1	7.808786E-1	8.446540E-1	7.421063E-1	7.721609E-1	7.726070E-1	7.203768E-1	7.822774E-1	8.218300E-1	7.273108E-1	7.728259E-1	7.750142E-1	7.440470E-1	7.887324E-1	7.633855E-1	7.960766E-1	7.987796E-1	7.791161E-1	7.614097E-1	7.673768E-1	7.817640E-1	7.616453E-1	7.428876E-1	8.012457E-1	8.111015E-1	8.067620E-1	7.248797E-1	7.799502E-1	7.777688E-1	7.521984E-1	7.633536E-1	7.888219E-1	7.804789E-1	7.521214E-1	7.948231E-1	7.196920E-1	8.121895E-1	7.864658E-1	7.986288E-1	7.897673E-1	7.413236E-1	7.950783E-1	7.896413E-1	7.925919E-1	7.801942E-1	8.215822E-1	8.014035E-1	8.252808E-1	7.784874E-1	8.105897E-1	7.689158E-1	7.465450E-1	8.159248E-1	7.677530E-1	7.556124E-1	7.771420E-1	7.882587E-1	8.040352E-1	7.842407E-1	7.935684E-1	7.584236E-1	7.897504E-1	8.020925E-1	7.870977E-1	8.181971E-1	7.842667E-1	8.005574E-1	7.650502E-1	7.897329E-1	7.832095E-1	7.642942E-1	8.031340E-1	7.886315E-1	8.037971E-1	7.856258E-1	7.799165E-1	8.053496E-1	7.666069E-1	8.220445E-1	7.504831E-1	7.730633E-1	7.363230E-1	7.925373E-1	8.066979E-1	8.441630E-1	7.705982E-1	7.914785E-1	7.719650E-1	8.077704E-1	7.503960E-1	7.936531E-1	8.043372E-1	7.817594E-1	7.666136E-1	7.649033E-1	7.862594E-1	8.245777E-1	8.157442E-1	7.747722E-1	8.235650E-1	8.368705E-1	7.658388E-1	7.865415E-1	7.724800E-1	7.814322E-1	8.084846E-1	7.908499E-1	7.925280E-1	7.945641E-1	8.184700E-1	7.623783E-1	8.016720E-1	8.200467E-1	7.841625E-1	7.885377E-1	8.190623E-1	8.325856E-1	7.749495E-1	7.989929E-1	7.612126E-1	8.442245E-1	7.930255E-1	8.440422E-1	8.190365E-1	8.185959E-1	7.670725E-1	7.933450E-1	7.892271E-1	7.787944E-1	8.241380E-1	7.715552E-1	8.203213E-1	7.950796E-1	8.195777E-1	7.681112E-1	8.101319E-1	8.203118E-1	8.313193E-1	8.418987E-1	7.955546E-1	7.593130E-1	8.040267E-1	7.619777E-1	8.078852E-1	7.712430E-1	8.098599E-1	8.110011E-1	8.599593E-1	7.754852E-1	8.338281E-1	7.933655E-1	8.412913E-1	8.552066E-1	8.168442E-1	8.129362E-1	7.976097E-1	7.785215E-1	8.117287E-1	8.120580E-1	8.191551E-1	8.023293E-1	7.600438E-1	7.299956E-1	8.253953E-1
2.905120E+2	8.568112E-1	7.658041E-1	8.036315E-1	8.132840E-1	8.143954E-1	7.807842E-1	8.008951E-1	7.881410E-1	8.064190E-1	8.378603E-1	7.854657E-1	7.992321E-1	8.178427E-1	8.040097E-1	7.884629E-1	8.334851E-1	8.111544E-1	7.687197E-1	8.405979E-1	7.792901E-1	8.481156E-1	7.985561E-1	8.127955E-1	8.156334E-1	8.068967E-1	8.192389E-1	7.648338E-1	7.988440E-1	7.875642E-1	7.931426E-1	7.646488E-1	7.712524E-1	7.876932E-1	7.978181E-1	7.561640E-1	8.200880E-1	7.458551E-1	7.421811E-1	7.489165E-1	7.970982E-1	7.601137E-1	8.389674E-1	8.168471E-1	8.296211E-1	8.563688E-1	7.930968E-1	7.789012E-1	8.294414E-1	8.614873E-1	7.626211E-1	8.282209E-1	8.103919E-1	8.155082E-1	7.970966E-1	7.606026E-1	8.327078E-1	8.110694E-1	7.856495E-1	7.744591E-1	8.000955E-1	8.774087E-1	8.017745E-1	7.393487E-1	8.289353E-1	8.245271E-1	7.834104E-1	7.842001E-1	7.658081E-1	7.937969E-1	7.961273E-1	8.085307E-1	7.744915E-1	7.950489E-1	8.098816E-1	8.319521E-1	8.598780E-1	8.397170E-1	8.525776E-1	7.399401E-1	8.201647E-1	8.171217E-1	8.015297E-1	8.134164E-1	7.852216E-1	8.032186E-1	8.166941E-1	8.514186E-1	7.966037E-1	8.497930E-1	7.964395E-1	8.236915E-1	8.160033E-1	8.329430E-1	7.969514E-1	8.241421E-1	8.361522E-1	7.824847E-1	8.104122E-1	7.854685E-1	7.459154E-1	8.067912E-1	7.871999E-1	7.862030E-1	8.555396E-1	8.083068E-1	7.371640E-1	8.171428E-1	8.107150E-1	7.806654E-1	7.986640E-1	7.706153E-1	8.024254E-1	8.215188E-1	8.179745E-1	8.199306E-1	7.815110E-1	7.924770E-1	8.336275E-1	8.508331E-1	7.573496E-1	8.451841E-1	7.930761E-1	7.978493E-1	7.960467E-1	7.990696E-1	7.742796E-1	7.936732E-1	8.112076E-1	8.123905E-1	8.194356E-1	7.803739E-1	7.934245E-1	7.803482E-1	8.404062E-1	7.921384E-1	7.654369E-1	8.509199E-1	7.797887E-1	7.745754E-1	8.183723E-1	7.978351E-1	7.496170E-1	7.832188E-1	8.530406E-1	7.907902E-1	8.432399E-1	8.040941E-1	8.143873E-1	8.185726E-1	8.348362E-1	8.450709E-1	8.240877E-1	8.116011E-1	8.138014E-1	8.295025E-1	7.649556E-1	8.146148E-1	8.093915E-1	8.216842E-1	8.132445E-1	8.293069E-1	8.063042E-1	7.672094E-1	8.038962E-1	8.534195E-1	8.405209E-1	8.329754E-1	8.251379E-1	8.035008E-1	8.132360E-1	7.775880E-1	7.623548E-1
2.910040E+2	9.320081E-1	1.009466E+0	9.480951E-1	9.712987E-1	9.216144E-1	9.900500E-1	9.979343E-1	9.577672E-1	9.459454E-1	9.900032E-1	1.025855E+0	9.419688E-1	1.018233E+0	9.797651E-1	8.906597E-1	9.637312E-1	9.809723E-1	9.738954E-1	9.422217E-1	9.536523E-1	9.987094E-1	9.918171E-1	9.635752E-1	9.617254E-1	9.166753E-1	1.032169E+0	9.761239E-1	1.014066E+0	9.333342E-1	9.714209E-1	9.878430E-1	9.457138E-1	9.896735E-1	9.401293E-1	9.890692E-1	9.805848E-1	9.507695E-1	9.730609E-1	1.004205E+0	9.513844E-1	1.002742E+0	9.958799E-1	9.725166E-1	1.016404E+0	1.003525E+0	1.001872E+0	9.940848E-1	9.868128E-1	9.807333E-1	9.848743E-1	9.927642E-1	9.744318E-1	1.045805E+0	9.782537E-1	9.443866E-1	1.029605E+0	1.042725E+0	1.002307E+0	9.821064E-1	9.562762E-1	9.766073E-1	9.877415E-1	9.313833E-1	9.940622E-1	9.988028E-1	9.486622E-1	1.000115E+0	9.107692E-1	9.578867E-1	9.482072E-1	9.668935E-1	1.024235E+0	1.037811E+0	9.825378E-1	9.945508E-1	9.503348E-1	1.024481E+0	9.725293E-1	9.226273E-1	1.011302E+0	9.361762E-1	9.945420E-1	1.019146E+0	9.576549E-1	1.014984E+0	1.008854E+0	9.932668E-1	1.014161E+0	9.410158E-1	9.472109E-1	1.027870E+0	9.823809E-1	1.015059E+0	9.820518E-1	9.591421E-1	1.007976E+0	1.021648E+0	1.014386E+0	9.708879E-1	1.038923E+0	1.020374E+0	9.758174E-1	9.311161E-1	9.631070E-1	9.862063E-1	9.862174E-1	1.001251E+0	9.917616E-1	1.047095E+0	9.611714E-1	9.906743E-1	9.898149E-1	1.014223E+0	1.004258E+0	9.593913E-1	1.003294E+0	1.038180E+0	9.607156E-1	1.018258E+0	9.604213E-1	9.435823E-1	1.003769E+0	1.011837E+0	9.578236E-1	1.006636E+0	9.717530E-1	1.026007E+0	9.523928E-1	1.003360E+0	1.002409E+0	9.649542E-1	9.913497E-1	9.758044E-1	1.000890E+0	1.019595E+0	9.609877E-1	9.572558E-1	9.533307E-1	9.388516E-1	9.735205E-1	1.034409E+0	9.620858E-1	9.258451E-1	9.899836E-1	1.008047E+0	9.757406E-1	9.928830E-1	9.443251E-1	9.956420E-1	1.024152E+0	1.035919E+0	9.535680E-1	9.963728E-1	9.744928E-1	9.856784E-1	1.002418E+0	9.984261E-1	9.670508E-1	1.014299E+0	1.003199E+0	1.050518E+0	1.003168E+0	1.005616E+0	9.618357E-1	1.043410E+0	1.014894E+0	9.822786E-1	9.959847E-1	1.049278E+0	9.218984E-1	1.034687E+0	8.428969E-1
2.915240E+2	1.155374E+0	1.145374E+0	1.095120E+0	1.191595E+0	1.100083E+0	1.166583E+0	1.171544E+0	1.154279E+0	1.105887E+0	1.122262E+0	1.175465E+0	1.116525E+0	1.148272E+0	1.089123E+0	1.118839E+0	1.162605E+0	1.136916E+0	1.114704E+0	1.123182E+0	1.097769E+0	1.140435E+0	1.063990E+0	1.157983E+0	1.095291E+0	1.117288E+0	1.077600E+0	1.114877E+0	1.121761E+0	1.206350E+0	1.117113E+0	1.099570E+0	1.108544E+0	1.168118E+0	1.082740E+0	1.141064E+0	1.094456E+0	1.214918E+0	1.073299E+0	1.100633E+0	1.063538E+0	1.077247E+0	1.114422E+0	1.095491E+0	1.134337E+0	1.133803E+0	1.147358E+0	1.143099E+0	1.173600E+0	1.106688E+0	1.128774E+0	1.126260E+0	1.147640E+0	1.094464E+0	1.098108E+0	1.168899E+0	1.145416E+0	1.147709E+0	1.174809E+0	1.053290E+0	1.163974E+0	1.165176E+0	1.094941E+0	1.110726E+0	1.105579E+0	1.197353E+0	1.114420E+0	1.143723E+0	1.103654E+0	1.132457E+0	1.129535E+0	1.135788E+0	1.142094E+0	1.133365E+0	1.123255E+0	1.128445E+0	1.116829E+0	1.133665E+0	1.090096E+0	1.187705E+0	1.137892E+0	1.169111E+0	1.108143E+0	1.124162E+0	1.121367E+0	1.117296E+0	1.112083E+0	1.144563E+0	1.143468E+0	1.095503E+0	1.074163E+0	1.176969E+0	1.120386E+0	1.124915E+0	1.182183E+0	1.190922E+0	1.133593E+0	1.151933E+0	1.156286E+0	1.109579E+0	1.093652E+0	1.122012E+0	1.126101E+0	1.158990E+0	1.087695E+0	1.157951E+0	1.099969E+0	1.158263E+0	1.186200E+0	1.169427E+0	1.086116E+0	1.157816E+0	1.081519E+0	1.136867E+0	1.099363E+0	1.122431E+0	1.194195E+0	1.136894E+0	1.156407E+0	1.165276E+0	1.093023E+0	1.124094E+0	1.127055E+0	1.185412E+0	1.157070E+0	1.165178E+0	1.124185E+0	1.138279E+0	1.123976E+0	1.162828E+0	1.148426E+0	1.165409E+0	1.188358E+0	1.127771E+0	1.200698E+0	1.161944E+0	1.120608E+0	1.185320E+0	1.110017E+0	1.126351E+0	1.146220E+0	1.158256E+0	1.152240E+0	1.136904E+0	1.150751E+0	1.113276E+0	1.221088E+0	1.061014E+0	1.086098E+0	1.134897E+0	1.185121E+0	1.141889E+0	1.151291E+0	1.166066E+0	1.136911E+0	1.122441E+0	1.207626E+0	1.135487E+0	1.129009E+0	1.127170E+0	1.132059E+0	1.181096E+0	1.155040E+0	1.150022E+0	1.148157E+0	1.122436E+0	1.157583E+0	1.160113E+0	1.089382E+0	1.195940E+0	1.079631E+0	1.141316E+0	1.058237E+0
2.920030E+2	9.556496E-1	1.026560E+0	1.016686E+0	1.035163E+0	9.874894E-1	9.931971E-1	9.869467E-1	9.966883E-1	9.855230E-1	9.602574E-1	9.742128E-1	9.587314E-1	9.861889E-1	9.705083E-1	9.640638E-1	1.035609E+0	1.028428E+0	8.673628E-1	1.037932E+0	9.730764E-1	9.772377E-1	9.529117E-1	9.671310E-1	9.907582E-1	9.822709E-1	9.494011E-1	9.582458E-1	9.882848E-1	1.033504E+0	9.287456E-1	9.556373E-1	9.271065E-1	9.873298E-1	9.922923E-1	9.346780E-1	9.713068E-1	9.913601E-1	9.438259E-1	9.264861E-1	9.756518E-1	1.010263E+0	9.822740E-1	9.883778E-1	9.949733E-1	9.853686E-1	1.047607E+0	9.405878E-1	9.898717E-1	9.940417E-1	9.722257E-1	9.981050E-1	9.969219E-1	1.014355E+0	1.014154E+0	1.012863E+0	9.693578E-1	9.617165E-1	9.683135E-1	9.375624E-1	9.063094E-1	1.032437E+0	9.994229E-1	1.005882E+0	9.827651E-1	9.894004E-1	9.750710E-1	9.675309E-1	9.885926E-1	9.601807E-1	9.613499E-1	1.013625E+0	9.810623E-1	1.006319E+0	9.628869E-1	9.834955E-1	1.042100E+0	9.991218E-1	9.775008E-1	9.750877E-1	9.749928E-1	9.813021E-1	9.935632E-1	9.960616E-1	1.009921E+0	9.735906E-1	1.011373E+0	9.930452E-1	9.691687E-1	9.704978E-1	9.653568E-1	1.017493E+0	1.011505E+0	1.016754E+0	1.027921E+0	1.001851E+0	9.693606E-1	1.015665E+0	9.730632E-1	9.862313E-1	1.040262E+0	9.899157E-1	9.852119E-1	1.020949E+0	9.907459E-1	9.999524E-1	1.008095E+0	9.881198E-1	1.022641E+0	1.084582E+0	9.654469E-1	1.004279E+0	9.558711E-1	1.067364E+0	9.825521E-1	1.020234E+0	9.523975E-1	1.087336E+0	1.008864E+0	1.000524E+0	1.018189E+0	1.013518E+0	9.669057E-1	1.031684E+0	9.629984E-1	1.014683E+0	9.897925E-1	9.936031E-1	9.782762E-1	1.058563E+0	9.744318E-1	1.052572E+0	9.536511E-1	9.561055E-1	1.042601E+0	9.946490E-1	9.840638E-1	1.018011E+0	1.013999E+0	9.946588E-1	1.037575E+0	1.024739E+0	9.702396E-1	1.017194E+0	9.820679E-1	9.698282E-1	9.808020E-1	9.491705E-1	9.917871E-1	9.835220E-1	1.053040E+0	1.006222E+0	1.009542E+0	9.977568E-1	9.608631E-1	1.003448E+0	1.021455E+0	1.074744E+0	9.992255E-1	9.499877E-1	9.643547E-1	9.662794E-1	9.570045E-1	9.591914E-1	9.704793E-1	9.950673E-1	1.004865E+0	9.801055E-1	1.018594E+0	1.035185E+0	9.888250E-1	1.043009E+0	9.891256E-1
2.925000E+2	9.354103E-1	9.473548E-1	9.816731E-1	9.624118E-1	9.894556E-1	9.861240E-1	1.042194E+0	1.015679E+0	9.754680E-1	9.772128E-1	1.029916E+0	1.038399E+0	1.017008E+0	9.733972E-1	9.201271E-1	1.006587E+0	9.812615E-1	9.383035E-1	9.678351E-1	1.034651E+0	9.462186E-1	9.548176E-1	9.292581E-1	9.496335E-1	9.609211E-1	9.861720E-1	9.097074E-1	1.003056E+0	1.017332E+0	9.805762E-1	9.736811E-1	9.365211E-1	1.027176E+0	9.358585E-1	9.655515E-1	9.280580E-1	9.533419E-1	9.744379E-1	1.007493E+0	1.003651E+0	1.026992E+0	1.010807E+0	1.000620E+0	9.416111E-1	9.994683E-1	9.815096E-1	1.011662E+0	1.058019E+0	1.006322E+0	9.666640E-1	9.627302E-1	1.012871E+0	9.608216E-1	1.008404E+0	1.023692E+0	9.864505E-1	1.010669E+0	1.017404E+0	9.724587E-1	1.002119E+0	9.952876E-1	9.440493E-1	9.742702E-1	9.660463E-1	1.069048E+0	1.002898E+0	9.815361E-1	9.242770E-1	9.789736E-1	9.673616E-1	9.863912E-1	9.698492E-1	1.020398E+0	9.838460E-1	9.278272E-1	1.039469E+0	1.000940E+0	9.371531E-1	9.835689E-1	9.416636E-1	9.118092E-1	9.604957E-1	9.776690E-1	1.009647E+0	9.663313E-1	9.682314E-1	9.980010E-1	9.745478E-1	1.019675E+0	1.010158E+0	9.571952E-1	9.628392E-1	1.057873E+0	9.787709E-1	9.639523E-1	9.365101E-1	9.793154E-1	9.313519E-1	1.003439E+0	9.497579E-1	9.498499E-1	9.885628E-1	1.045143E+0	1.033458E+0	1.012696E+0	9.475190E-1	9.812556E-1	9.787851E-1	9.826723E-1	9.531262E-1	9.740072E-1	9.767316E-1	1.007748E+0	9.610336E-1	9.544578E-1	1.011470E+0	9.823353E-1	9.671387E-1	9.925016E-1	9.403573E-1	9.844740E-1	9.816421E-1	9.893686E-1	9.651815E-1	1.014543E+0	1.005853E+0	9.910572E-1	9.518701E-1	1.001763E+0	1.012067E+0	1.014810E+0	9.700767E-1	1.014659E+0	9.711653E-1	9.641049E-1	9.813431E-1	9.676180E-1	9.874070E-1	1.016399E+0	9.683230E-1	9.836214E-1	9.564688E-1	1.009382E+0	9.757943E-1	9.915855E-1	9.764302E-1	9.593183E-1	9.712280E-1	1.020590E+0	9.913417E-1	9.676131E-1	9.355202E-1	1.008907E+0	9.871128E-1	9.747472E-1	9.930524E-1	9.736365E-1	9.421848E-1	9.961430E-1	1.025437E+0	9.508722E-1	1.037730E+0	9.064898E-1	1.012690E+0	9.921726E-1	9.584104E-1	1.016237E+0	9.624211E-1	1.057462E+0	9.221261E-1	1.014580E+0	9.430729E-1
2.930040E+2	1.088489E+0	1.086700E+0	1.088137E+0	1.116553E+0	1.061219E+0	1.054525E+0	1.070156E+0	1.118206E+0	1.034856E+0	1.049582E+0	1.063964E+0	1.051320E+0	1.086682E+0	1.068748E+0	1.028841E+0	1.091862E+0	1.094556E+0	1.006135E+0	1.031136E+0	1.079388E+0	1.065291E+0	1.016960E+0	1.016583E+0	1.053802E+0	1.080577E+0	1.090828E+0	1.010891E+0	1.089625E+0	1.090980E+0	1.102538E+0	1.065345E+0	1.017809E+0	1.137159E+0	1.060165E+0	1.055555E+0	1.079760E+0	1.121600E+0	9.994248E-1	1.071099E+0	1.096410E+0	1.085103E+0	1.084640E+0	1.065001E+0	1.056123E+0	1.117667E+0	1.096808E+0	1.044401E+0	1.073118E+0	1.126138E+0	1.017843E+0	1.088244E+0	1.145535E+0	1.087165E+0	1.031221E+0	1.094677E+0	1.108122E+0	1.039818E+0	1.124912E+0	9.988933E-1	1.056510E+0	1.094986E+0	1.093928E+0	9.947017E-1	1.078445E+0	1.088341E+0	1.069403E+0	1.100709E+0	1.085683E+0	1.057686E+0	1.065336E+0	9.789223E-1	1.091358E+0	1.077353E+0	1.057894E+0	1.012326E+0	1.048097E+0	1.082805E+0	1.122138E+0	1.082320E+0	1.056701E+0	1.119760E+0	1.073883E+0	1.115199E+0	1.143393E+0	1.055015E+0	1.085567E+0	1.079022E+0	1.078144E+0	1.068362E+0	1.074912E+0	1.071622E+0	1.084342E+0	1.121533E+0	1.071559E+0	1.034089E+0	1.090729E+0	1.013733E+0	1.072738E+0	1.020755E+0	1.093354E+0	1.094571E+0	1.038191E+0	1.088760E+0	1.044739E+0	1.063824E+0	1.096035E+0	1.083588E+0	1.053771E+0	1.088164E+0	1.077924E+0	1.133406E+0	1.046684E+0	1.065039E+0	1.061431E+0	1.009684E+0	1.040513E+0	1.097773E+0	1.107167E+0	1.105425E+0	1.057519E+0	1.078388E+0	1.149650E+0	1.051698E+0	1.036325E+0	1.091336E+0	1.109828E+0	1.058064E+0	1.061974E+0	1.050428E+0	1.114626E+0	1.033562E+0	1.131434E+0	1.120251E+0	1.127627E+0	1.075680E+0	1.053062E+0	1.055606E+0	1.043120E+0	1.092515E+0	1.054879E+0	1.078474E+0	1.094401E+0	1.052292E+0	1.063313E+0	1.054777E+0	1.084359E+0	1.075779E+0	1.084300E+0	1.098404E+0	1.140678E+0	1.059002E+0	1.120064E+0	1.055309E+0	1.082339E+0	1.085411E+0	1.091348E+0	1.091189E+0	1.058455E+0	1.090218E+0	1.075642E+0	1.069818E+0	1.068896E+0	1.031156E+0	1.109608E+0	1.103252E+0	1.091309E+0	1.055852E+0	1.084090E+0	1.083888E+0	1.080151E+0	1.176375E+0	1.027156E+0
2.935120E+2	1.157291E+0	1.117891E+0	1.182692E+0	1.119916E+0	1.135296E+0	1.137486E+0	1.086064E+0	1.159660E+0	1.145164E+0	1.186987E+0	1.172969E+0	1.142969E+0	1.194676E+0	1.124363E+0	1.112844E+0	1.125520E+0	1.113957E+0	1.065912E+0	1.094106E+0	1.168504E+0	1.145514E+0	1.159727E+0	1.116822E+0	1.190837E+0	1.133734E+0	1.209704E+0	1.134727E+0	1.116721E+0	1.145121E+0	1.152643E+0	1.098766E+0	1.073154E+0	1.166176E+0	1.156640E+0	1.083326E+0	1.124932E+0	1.136519E+0	1.146740E+0	1.169780E+0	1.157554E+0	1.188954E+0	1.117939E+0	1.126333E+0	1.161632E+0	1.206552E+0	1.210547E+0	1.140178E+0	1.173619E+0	1.136195E+0	1.128701E+0	1.170650E+0	1.147723E+0	1.129522E+0	1.172372E+0	1.126749E+0	1.102616E+0	1.084286E+0	1.139477E+0	1.109573E+0	1.122504E+0	1.174774E+0	1.133540E+0	1.111136E+0	1.211106E+0	1.206726E+0	1.154287E+0	1.138785E+0	1.092071E+0	1.170323E+0	1.109064E+0	1.131792E+0	1.151251E+0	1.197492E+0	1.152984E+0	1.157277E+0	1.129750E+0	1.173334E+0	1.138459E+0	1.124037E+0	1.124074E+0	1.169346E+0	1.144932E+0	1.177330E+0	1.148158E+0	1.210819E+0	1.135595E+0	1.118817E+0	1.130499E+0	1.157546E+0	1.163524E+0	1.107844E+0	1.119280E+0	1.182296E+0	1.160655E+0	1.104551E+0	1.116590E+0	1.170320E+0	1.127534E+0	1.123401E+0	1.180973E+0	1.167523E+0	1.115910E+0	1.126370E+0	1.159207E+0	1.237755E+0	1.136270E+0	1.121433E+0	1.142767E+0	1.176130E+0	1.138960E+0	1.132602E+0	1.077054E+0	1.193572E+0	1.093711E+0	1.155828E+0	1.141493E+0	1.105258E+0	1.144868E+0	1.185783E+0	1.153572E+0	1.150601E+0	1.124662E+0	1.143432E+0	1.164464E+0	1.209558E+0	1.156873E+0	1.162759E+0	1.083526E+0	1.173009E+0	1.131624E+0	1.119000E+0	1.142277E+0	1.125865E+0	1.126107E+0	1.159603E+0	1.127227E+0	1.203390E+0	1.161965E+0	1.163875E+0	1.171120E+0	1.171194E+0	1.166278E+0	1.192191E+0	1.171793E+0	1.163528E+0	1.152691E+0	1.097230E+0	1.166777E+0	1.141604E+0	1.188225E+0	1.137725E+0	1.114428E+0	1.152806E+0	1.123364E+0	1.187026E+0	1.130883E+0	1.133466E+0	1.124733E+0	1.156655E+0	1.173548E+0	1.200767E+0	1.058031E+0	1.119058E+0	1.200394E+0	1.129874E+0	1.181564E+0	1.140461E+0	1.145341E+0	1.228098E+0	1.123719E+0	1.228242E+0	1.181733E+0
2.940080E+2	1.040315E+0	1.049128E+0	1.064133E+0	1.050762E+0	9.972216E-1	1.032063E+0	1.068394E+0	1.017628E+0	1.042670E+0	1.031815E+0	1.066437E+0	1.057258E+0	1.001115E+0	1.061662E+0	1.046984E+0	1.049943E+0	1.016992E+0	1.031570E+0	1.046229E+0	1.041528E+0	1.003924E+0	1.024303E+0	1.059177E+0	1.072551E+0	1.012003E+0	1.050532E+0	1.028183E+0	1.045466E+0	1.053064E+0	1.073125E+0	1.069312E+0	1.005687E+0	1.084436E+0	1.002786E+0	1.047618E+0	1.058229E+0	1.076867E+0	1.007050E+0	1.018662E+0	1.049141E+0	1.023342E+0	1.078435E+0	1.021796E+0	1.053897E+0	1.100620E+0	1.002386E+0	1.025952E+0	1.033596E+0	9.734837E-1	1.047937E+0	1.028429E+0	1.116983E+0	1.084984E+0	1.051320E+0	1.071565E+0	1.082459E+0	1.035982E+0	1.041329E+0	9.982730E-1	1.076177E+0	1.063710E+0	1.052113E+0	1.044117E+0	1.030148E+0	1.074504E+0	1.063042E+0	1.072700E+0	9.698089E-1	1.036238E+0	1.064946E+0	9.949700E-1	1.054562E+0	1.064137E+0	9.942838E-1	1.016279E+0	1.045998E+0	1.104819E+0	1.041231E+0	1.096621E+0	1.037889E+0	1.074447E+0	1.016132E+0	1.045947E+0	1.102586E+0	1.076281E+0	1.023248E+0	1.069841E+0	1.010031E+0	9.920963E-1	9.964758E-1	1.141265E+0	1.077144E+0	1.006847E+0	1.040393E+0	1.063818E+0	1.066145E+0	1.038594E+0	1.042048E+0	1.030217E+0	1.061360E+0	1.047703E+0	1.019789E+0	1.061312E+0	1.080608E+0	1.106111E+0	1.022705E+0	1.045679E+0	1.044639E+0	1.074317E+0	1.030524E+0	1.065054E+0	1.066240E+0	1.062368E+0	1.010080E+0	1.068819E+0	1.040976E+0	1.040885E+0	1.043158E+0	1.061124E+0	1.069200E+0	1.030652E+0	9.883522E-1	1.033867E+0	1.030950E+0	1.045817E+0	1.062711E+0	1.038505E+0	1.069248E+0	1.114425E+0	1.011833E+0	1.011264E+0	1.028463E+0	1.026386E+0	1.041388E+0	1.051650E+0	1.035192E+0	1.038238E+0	1.021351E+0	1.016947E+0	1.116893E+0	1.060376E+0	1.051821E+0	1.034541E+0	1.073370E+0	1.115156E+0	1.101541E+0	9.927854E-1	1.064238E+0	1.031485E+0	1.082601E+0	1.086802E+0	1.074035E+0	1.119932E+0	1.044636E+0	1.035889E+0	1.060658E+0	1.089920E+0	1.040676E+0	1.030927E+0	1.019728E+0	1.120792E+0	1.094746E+0	1.038726E+0	1.012349E+0	1.085337E+0	1.060169E+0	1.090909E+0	1.049677E+0	1.080865E+0	9.741720E-1	9.799445E-1	9.437646E-1
2.945010E+2	9.729699E-1	9.695533E-1	9.181649E-1	9.389658E-1	9.396026E-1	9.630157E-1	9.452171E-1	9.640417E-1	9.266317E-1	9.432325E-1	9.559465E-1	9.713812E-1	9.400905E-1	9.245527E-1	8.997808E-1	1.029553E+0	9.964955E-1	9.289352E-1	9.754124E-1	9.484920E-1	9.634363E-1	9.479572E-1	9.169061E-1	9.771476E-1	9.402527E-1	9.516994E-1	8.921264E-1	9.862706E-1	9.327657E-1	9.433848E-1	9.757553E-1	9.318773E-1	9.854643E-1	9.681959E-1	9.798757E-1	9.557226E-1	9.780047E-1	9.463666E-1	9.032295E-1	9.106517E-1	9.740003E-1	9.651534E-1	9.423778E-1	1.009784E+0	9.757596E-1	9.848559E-1	9.817515E-1	9.806258E-1	9.268214E-1	1.002892E+0	9.912091E-1	9.659695E-1	9.633839E-1	1.004266E+0	9.881972E-1	9.820215E-1	9.783203E-1	9.835477E-1	9.514903E-1	9.628529E-1	9.926914E-1	9.733706E-1	8.982434E-1	9.178180E-1	9.689846E-1	9.407429E-1	9.863296E-1	9.991562E-1	9.548880E-1	9.495711E-1	9.610959E-1	9.650794E-1	9.544676E-1	9.325831E-1	9.723203E-1	9.977168E-1	9.498321E-1	9.799219E-1	9.673951E-1	9.840121E-1	9.676043E-1	9.481974E-1	9.818110E-1	9.491523E-1	9.737074E-1	9.166007E-1	9.265845E-1	9.715035E-1	9.618214E-1	9.445059E-1	9.652188E-1	9.072835E-1	9.963592E-1	9.604685E-1	9.707242E-1	9.269403E-1	9.543022E-1	9.180001E-1	9.889881E-1	8.823485E-1	9.554238E-1	9.484777E-1	9.725824E-1	9.761725E-1	9.293557E-1	9.892229E-1	9.766000E-1	9.615552E-1	9.213599E-1	9.590575E-1	9.486207E-1	9.930834E-1	9.530337E-1	9.914114E-1	9.340341E-1	9.455084E-1	9.426990E-1	9.719778E-1	9.748958E-1	9.512656E-1	1.002228E+0	9.985431E-1	9.858104E-1	9.451140E-1	9.454765E-1	9.854706E-1	9.614057E-1	9.905866E-1	9.779710E-1	9.018503E-1	9.851720E-1	9.196428E-1	9.685214E-1	9.695462E-1	1.010142E+0	9.334139E-1	1.051144E+0	9.827676E-1	9.392042E-1	9.762879E-1	1.034418E+0	9.425269E-1	9.450816E-1	9.999402E-1	1.016714E+0	9.569935E-1	9.610467E-1	9.465404E-1	1.001233E+0	9.593910E-1	9.935295E-1	9.674873E-1	1.007329E+0	9.566223E-1	9.264569E-1	9.646911E-1	1.003991E+0	9.695213E-1	9.671911E-1	9.359640E-1	9.364665E-1	9.940881E-1	9.431082E-1	9.832406E-1	9.758971E-1	9.894968E-1	9.819336E-1	9.624986E-1	1.004045E+0	8.970395E-1	9.074733E-1	9.973100E-1
2.950070E+2	9.522450E-1	9.621277E-1	9.599801E-1	9.963399E-1	9.448857E-1	9.615207E-1	9.369173E-1	9.712407E-1	9.314496E-1	9.554356E-1	1.026403E+0	9.675575E-1	9.893598E-1	9.523437E-1	9.266310E-1	9.983407E-1	9.326368E-1	8.971464E-1	9.598614E-1	9.825698E-1	9.494266E-1	9.654221E-1	9.018971E-1	1.009329E+0	9.426352E-1	9.741296E-1	9.401876E-1	9.451220E-1	9.902230E-1	9.885666E-1	9.460194E-1	9.175044E-1	9.888751E-1	9.555029E-1	9.186029E-1	1.011639E+0	9.571882E-1	9.327056E-1	9.372153E-1	1.032477E+0	9.685618E-1	9.787338E-1	9.389888E-1	9.988964E-1	1.006680E+0	9.437184E-1	9.258162E-1	9.680497E-1	9.821177E-1	9.549302E-1	9.654938E-1	9.773208E-1	1.013088E+0	9.660534E-1	9.930448E-1	9.860995E-1	9.554597E-1	9.596763E-1	9.400681E-1	9.766909E-1	9.590371E-1	9.707408E-1	9.134381E-1	9.634292E-1	9.712774E-1	1.007324E+0	9.889537E-1	9.403412E-1	9.444974E-1	9.590632E-1	9.351921E-1	9.579199E-1	1.012779E+0	9.192821E-1	9.638897E-1	9.678996E-1	9.970934E-1	9.169675E-1	9.437001E-1	9.532598E-1	9.756376E-1	9.993592E-1	9.710384E-1	9.591299E-1	9.265204E-1	9.530245E-1	9.462403E-1	1.019285E+0	9.544741E-1	9.509385E-1	9.922317E-1	9.387505E-1	9.789365E-1	1.029333E+0	9.814695E-1	1.023084E+0	9.906415E-1	9.577050E-1	9.798211E-1	9.529773E-1	9.863838E-1	9.566988E-1	9.914848E-1	9.662456E-1	9.983026E-1	1.014414E+0	1.003439E+0	1.000868E+0	1.003702E+0	9.663540E-1	9.541899E-1	9.976112E-1	9.792539E-1	9.933864E-1	9.742259E-1	9.473525E-1	9.948904E-1	9.853491E-1	9.944571E-1	9.725928E-1	9.993570E-1	9.519489E-1	1.018175E+0	1.026756E+0	9.598747E-1	9.793649E-1	9.476195E-1	9.464702E-1	1.012338E+0	9.843715E-1	9.340323E-1	9.777321E-1	9.751389E-1	9.560938E-1	9.635506E-1	9.221147E-1	1.003651E+0	9.646356E-1	9.448442E-1	9.537813E-1	1.026473E+0	1.000717E+0	9.422417E-1	1.016763E+0	9.898419E-1	1.013934E+0	9.224331E-1	9.445255E-1	9.471732E-1	9.642430E-1	9.880007E-1	9.830083E-1	9.561869E-1	1.002070E+0	9.833664E-1	9.759876E-1	9.684112E-1	9.693865E-1	1.001686E+0	9.682799E-1	1.008522E+0	9.451731E-1	9.664759E-1	9.852857E-1	9.939340E-1	9.905952E-1	9.585592E-1	9.721185E-1	1.016235E+0	8.740977E-1	9.643057E-1	9.723886E-1
2.955070E+2	1.076762E+0	1.021785E+0	1.120761E+0	1.109246E+0	1.048425E+0	1.035892E+0	1.054690E+0	1.108572E+0	1.032964E+0	1.045484E+0	1.072099E+0	1.018221E+0	1.047587E+0	1.084137E+0	1.041750E+0	1.012351E+0	1.031155E+0	1.063736E+0	1.018321E+0	1.050617E+0	1.047316E+0	1.018160E+0	1.035993E+0	1.054479E+0	1.036865E+0	1.032811E+0	1.020636E+0	1.040002E+0	1.050500E+0	1.082345E+0	1.079240E+0	1.026626E+0	1.035086E+0	1.037242E+0	1.070838E+0	1.078800E+0	1.058991E+0	1.105431E+0	1.047269E+0	1.040917E+0	1.076998E+0	1.065020E+0	1.008198E+0	1.020117E+0	1.123322E+0	1.056595E+0	1.050843E+0	1.066577E+0	1.086413E+0	1.016213E+0	1.031090E+0	1.064092E+0	1.068682E+0	1.092565E+0	1.072181E+0	1.009991E+0	1.048964E+0	1.030614E+0	1.038331E+0	1.056284E+0	1.050507E+0	1.033057E+0	1.062308E+0	1.052327E+0	1.059502E+0	1.115646E+0	1.097240E+0	1.072819E+0	9.902997E-1	1.093532E+0	1.030626E+0	1.068495E+0	1.049028E+0	1.075126E+0	1.062521E+0	1.043256E+0	1.082729E+0	1.059441E+0	1.045677E+0	1.030572E+0	1.105577E+0	1.028018E+0	1.079686E+0	1.086915E+0	1.023918E+0	1.044946E+0	1.054945E+0	1.131414E+0	1.040895E+0	1.015972E+0	1.004135E+0	1.075743E+0	1.086268E+0	1.092772E+0	1.029063E+0	1.097977E+0	1.041579E+0	1.063482E+0	1.074357E+0	1.013888E+0	1.044409E+0	1.063109E+0	1.088925E+0	1.092710E+0	1.089744E+0	1.104810E+0	1.080495E+0	1.044060E+0	1.033599E+0	1.019019E+0	1.077726E+0	1.087395E+0	1.088849E+0	1.056868E+0	1.067560E+0	1.028527E+0	1.093066E+0	1.017166E+0	1.048966E+0	1.094120E+0	1.051634E+0	1.056150E+0	1.088747E+0	1.054371E+0	1.003815E+0	1.100104E+0	1.084764E+0	1.076875E+0	1.066670E+0	1.046783E+0	1.104178E+0	1.060199E+0	1.073747E+0	1.095582E+0	1.088295E+0	1.056067E+0	1.113450E+0	1.033884E+0	1.053426E+0	1.083003E+0	1.097359E+0	1.018362E+0	1.079589E+0	1.089489E+0	1.074754E+0	1.098750E+0	1.036300E+0	1.038974E+0	1.059970E+0	1.088755E+0	1.083351E+0	1.065773E+0	1.056168E+0	1.083932E+0	1.030180E+0	1.098600E+0	1.071025E+0	1.053021E+0	1.097539E+0	1.078317E+0	1.154890E+0	1.075941E+0	1.054035E+0	1.049830E+0	1.054626E+0	1.070712E+0	1.060840E+0	1.093462E+0	1.097182E+0	1.078517E+0	1.051548E+0	1.069266E+0
2.960030E+2	1.096315E+0	1.120242E+0	1.120786E+0	1.087357E+0	1.110236E+0	1.090759E+0	1.112765E+0	1.137771E+0	1.055607E+0	1.094345E+0	1.123585E+0	1.105002E+0	1.114458E+0	1.123041E+0	1.109136E+0	1.095963E+0	1.084884E+0	1.058234E+0	1.141895E+0	1.155039E+0	1.129011E+0	1.046129E+0	1.102521E+0	1.118696E+0	1.111364E+0	1.105520E+0	1.099301E+0	1.131917E+0	1.103294E+0	1.061876E+0	1.055706E+0	1.068251E+0	1.086210E+0	1.136789E+0	1.101684E+0	1.109249E+0	1.086960E+0	1.060663E+0	1.092080E+0	1.132221E+0	1.093261E+0	1.091001E+0	1.117011E+0	1.107304E+0	1.116862E+0	1.128384E+0	1.049067E+0	1.155661E+0	1.052650E+0	1.086445E+0	1.076029E+0	1.122517E+0	1.129459E+0	1.111335E+0	1.065977E+0	1.110427E+0	1.104007E+0	1.097750E+0	1.042731E+0	1.134762E+0	1.108938E+0	1.088180E+0	1.087704E+0	1.163202E+0	1.160611E+0	1.087969E+0	1.109013E+0	1.074174E+0	1.091765E+0	1.110406E+0	1.057476E+0	1.122078E+0	1.134736E+0	1.093731E+0	1.102551E+0	1.091796E+0	1.051901E+0	1.060227E+0	1.076225E+0	1.110270E+0	1.085142E+0	1.058974E+0	1.157429E+0	1.145173E+0	1.132806E+0	1.107916E+0	1.060875E+0	1.083404E+0	1.096023E+0	1.087377E+0	1.064006E+0	1.124540E+0	1.080389E+0	1.081559E+0	1.122619E+0	1.087318E+0	1.091554E+0	1.108280E+0	1.049006E+0	1.128324E+0	1.109570E+0	1.112378E+0	1.110851E+0	1.098982E+0	1.083922E+0	1.105427E+0	1.114743E+0	1.065182E+0	1.119704E+0	1.135668E+0	1.089494E+0	1.069652E+0	1.082123E+0	1.115970E+0	1.141747E+0	1.120759E+0	1.052719E+0	1.114993E+0	1.143375E+0	1.098045E+0	1.062708E+0	1.148131E+0	1.103437E+0	1.077160E+0	1.075769E+0	1.105427E+0	1.108674E+0	1.136348E+0	1.137367E+0	1.102925E+0	1.078704E+0	1.068176E+0	1.145803E+0	1.135320E+0	1.194317E+0	1.066488E+0	1.167647E+0	1.125080E+0	1.095947E+0	1.074448E+0	1.075738E+0	1.107206E+0	1.104076E+0	1.152209E+0	1.100014E+0	1.162819E+0	1.127065E+0	1.116810E+0	1.083791E+0	1.144467E+0	1.131801E+0	1.108462E+0	1.138683E+0	1.123585E+0	1.095583E+0	1.131077E+0	1.150513E+0	1.105941E+0	1.123359E+0	1.115766E+0	1.136496E+0	1.107759E+0	1.111001E+0	1.143209E+0	1.115952E+0	1.126267E+0	1.073464E+0	1.090685E+0	1.117201E+0	1.086239E+0	1.089900E+0	1.055349E+0
2.964980E+2	1.031715E+0	1.021086E+0	1.045318E+0	1.041602E+0	1.015244E+0	1.006333E+0	1.002969E+0	1.038660E+0	9.943197E-1	1.034722E+0	1.055518E+0	9.706901E-1	9.810198E-1	1.001882E+0	9.637466E-1	1.044472E+0	1.025338E+0	9.832382E-1	9.943891E-1	1.003675E+0	1.033844E+0	1.041830E+0	9.361939E-1	1.016515E+0	9.513843E-1	1.015014E+0	9.749336E-1	1.048897E+0	1.052891E+0	9.899703E-1	1.072516E+0	9.580949E-1	1.005213E+0	9.993798E-1	9.775624E-1	1.006620E+0	1.013350E+0	1.019661E+0	9.999044E-1	1.010262E+0	1.046512E+0	1.055311E+0	1.003951E+0	1.035225E+0	1.002830E+0	1.044424E+0	1.069942E+0	1.012069E+0	9.912953E-1	1.029784E+0	9.792587E-1	1.011949E+0	1.010708E+0	1.026481E+0	1.001958E+0	1.031123E+0	9.987003E-1	1.037276E+0	9.646218E-1	9.585634E-1	1.058965E+0	9.947023E-1	9.769665E-1	1.035130E+0	1.002658E+0	1.079027E+0	1.033554E+0	9.937001E-1	1.020519E+0	9.744014E-1	1.039362E+0	9.872962E-1	1.040533E+0	9.742205E-1	1.006854E+0	9.979577E-1	1.035826E+0	9.701154E-1	1.025698E+0	1.043826E+0	1.003227E+0	1.060243E+0	1.036076E+0	9.814403E-1	9.999356E-1	1.050907E+0	1.017168E+0	1.013703E+0	1.016527E+0	9.989331E-1	1.010280E+0	9.901833E-1	1.014543E+0	1.054659E+0	1.042382E+0	9.938095E-1	9.916947E-1	1.001755E+0	9.928609E-1	1.007249E+0	1.055023E+0	1.009033E+0	1.025209E+0	1.018958E+0	9.821963E-1	1.007605E+0	9.951165E-1	1.009332E+0	1.025321E+0	1.022545E+0	1.037323E+0	9.979727E-1	1.030908E+0	1.028019E+0	1.022195E+0	9.877925E-1	9.933813E-1	1.025380E+0	1.034109E+0	1.009082E+0	1.001267E+0	1.030124E+0	1.048553E+0	1.001407E+0	1.008010E+0	1.003655E+0	9.804515E-1	9.915586E-1	1.100830E+0	1.047402E+0	1.056429E+0	9.995035E-1	1.049992E+0	1.053889E+0	1.011171E+0	9.782544E-1	1.001944E+0	9.826964E-1	9.904970E-1	1.043042E+0	1.019680E+0	1.025447E+0	1.035963E+0	1.023340E+0	9.888603E-1	1.048585E+0	1.018570E+0	9.856366E-1	9.682071E-1	1.069357E+0	1.051855E+0	1.012117E+0	9.969675E-1	9.671014E-1	9.521175E-1	1.061631E+0	9.617034E-1	1.045292E+0	1.042430E+0	1.020996E+0	1.007027E+0	1.015687E+0	1.032890E+0	1.017356E+0	1.002452E+0	1.018864E+0	1.041608E+0	1.001095E+0	1.018747E+0	1.008287E+0	9.982147E-1	9.812487E-1
2.970040E+2	8.961660E-1	8.835032E-1	8.855735E-1	9.090287E-1	8.940793E-1	8.937552E-1	8.575169E-1	8.797680E-1	8.429070E-1	8.956038E-1	9.012846E-1	8.532445E-1	9.136811E-1	8.673536E-1	9.307948E-1	8.832185E-1	8.429577E-1	8.651727E-1	9.014471E-1	8.683721E-1	9.295107E-1	8.711459E-1	8.700528E-1	8.884407E-1	9.282554E-1	9.086033E-1	8.588200E-1	8.793321E-1	8.920303E-1	8.874961E-1	8.909542E-1	9.127570E-1	9.258932E-1	8.978376E-1	8.692064E-1	9.015546E-1	9.259573E-1	8.992560E-1	8.809487E-1	9.288246E-1	9.130415E-1	9.128772E-1	8.789476E-1	8.694484E-1	9.358671E-1	8.614884E-1	9.051482E-1	9.093297E-1	9.131212E-1	8.756193E-1	8.332773E-1	8.899249E-1	9.127795E-1	9.043996E-1	8.903143E-1	8.896020E-1	8.826033E-1	9.231765E-1	8.425793E-1	9.145586E-1	8.804912E-1	9.054555E-1	8.824712E-1	9.230010E-1	9.013752E-1	9.045304E-1	8.751257E-1	8.753459E-1	8.831650E-1	8.790035E-1	9.509776E-1	9.040898E-1	9.226299E-1	8.831292E-1	8.466836E-1	8.709502E-1	8.633124E-1	8.765016E-1	8.735729E-1	9.213198E-1	8.479942E-1	8.736186E-1	8.918582E-1	8.583492E-1	8.649970E-1	8.819124E-1	9.061215E-1	8.787678E-1	8.896522E-1	8.572074E-1	8.963007E-1	9.172646E-1	8.331969E-1	9.015788E-1	8.681331E-1	9.270821E-1	8.773892E-1	9.217961E-1	8.819861E-1	9.101289E-1	8.765921E-1	8.581124E-1	8.854663E-1	9.059038E-1	9.062862E-1	9.203584E-1	9.178067E-1	8.965481E-1	9.140793E-1	8.643227E-1	9.033033E-1	8.753305E-1	8.799489E-1	8.688183E-1	9.450983E-1	9.186403E-1	9.361667E-1	8.661993E-1	9.151550E-1	9.050849E-1	8.597319E-1	8.610214E-1	8.848553E-1	9.009447E-1	8.609692E-1	9.055358E-1	9.149602E-1	9.091778E-1	9.572988E-1	8.780109E-1	8.855164E-1	8.456878E-1	8.579757E-1	9.253428E-1	9.050722E-1	8.829096E-1	8.871765E-1	8.873194E-1	8.712232E-1	8.871014E-1	8.936266E-1	8.750610E-1	8.838076E-1	8.966258E-1	9.026511E-1	9.001170E-1	8.942012E-1	8.695685E-1	8.972327E-1	8.784297E-1	8.635488E-1	8.770555E-1	9.117086E-1	9.443926E-1	9.148482E-1	8.979145E-1	8.933806E-1	8.924461E-1	8.963287E-1	8.705060E-1	9.388915E-1	9.328983E-1	8.886829E-1	9.039447E-1	8.705496E-1	9.420603E-1	8.832720E-1	8.970191E-1	8.066504E-1	8.950618E-1	8.292709E-1	8.821668E-1
2.975020E+2	9.285435E-1	8.895252E-1	9.329849E-1	9.341482E-1	8.967677E-1	9.517756E-1	8.768085E-1	9.442554E-1	9.561664E-1	9.714026E-1	9.372132E-1	9.056500E-1	9.343086E-1	9.424842E-1	9.390881E-1	9.209459E-1	9.349304E-1	9.371691E-1	9.569691E-1	9.455159E-1	9.267972E-1	9.509474E-1	9.663085E-1	9.302199E-1	9.414648E-1	9.398465E-1	9.213200E-1	9.200793E-1	9.901298E-1	9.588611E-1	9.244615E-1	9.561196E-1	9.835788E-1	8.985973E-1	9.240804E-1	9.451194E-1	9.228369E-1	9.168405E-1	9.193835E-1	9.264741E-1	9.503610E-1	9.054249E-1	9.229824E-1	9.224428E-1	9.630251E-1	8.865107E-1	9.388607E-1	9.401946E-1	9.693820E-1	9.290312E-1	9.312194E-1	9.235348E-1	9.476118E-1	9.648479E-1	9.276153E-1	9.188847E-1	9.396734E-1	9.377381E-1	9.068058E-1	9.415456E-1	9.509208E-1	9.779110E-1	9.580654E-1	9.273620E-1	9.500275E-1	9.431477E-1	9.079402E-1	9.358934E-1	9.486083E-1	9.379430E-1	9.381001E-1	9.574086E-1	9.143922E-1	9.296727E-1	9.827858E-1	9.590976E-1	9.665200E-1	9.304150E-1	9.143150E-1	9.218271E-1	9.206343E-1	9.620376E-1	9.300551E-1	9.280499E-1	9.476997E-1	9.379516E-1	9.172686E-1	9.110546E-1	9.708344E-1	9.051770E-1	9.099750E-1	9.377081E-1	9.538215E-1	9.690527E-1	9.091196E-1	9.651092E-1	9.030420E-1	9.701678E-1	9.240421E-1	9.456532E-1	9.664638E-1	9.326969E-1	9.586578E-1	9.585514E-1	9.433038E-1	9.600824E-1	9.335118E-1	9.442639E-1	9.339191E-1	9.371410E-1	9.276614E-1	9.036929E-1	9.322529E-1	9.098759E-1	9.024931E-1	9.634836E-1	9.203553E-1	9.614011E-1	9.379956E-1	9.400867E-1	9.422846E-1	9.132251E-1	9.132735E-1	9.533333E-1	9.751656E-1	9.585276E-1	9.517730E-1	9.482743E-1	8.955171E-1	9.130581E-1	9.039558E-1	9.187930E-1	9.587934E-1	9.360175E-1	8.980993E-1	9.193675E-1	9.357894E-1	9.454380E-1	9.749192E-1	9.526844E-1	9.427831E-1	9.490856E-1	9.183736E-1	8.976949E-1	9.075565E-1	8.973795E-1	9.510541E-1	9.420258E-1	9.601648E-1	9.382283E-1	9.061576E-1	9.328418E-1	9.251461E-1	9.304863E-1	9.138997E-1	9.549541E-1	9.621470E-1	9.282169E-1	9.204870E-1	9.174087E-1	9.194764E-1	9.362802E-1	9.537860E-1	9.161885E-1	9.309764E-1	9.499993E-1	9.401895E-1	9.782232E-1	9.775183E-1	9.172792E-1	8.964680E-1	9.360017E-1
2.980020E+2	9.809629E-1	1.017581E+0	9.883813E-1	1.017182E+0	1.003332E+0	9.910531E-1	9.829151E-1	9.778954E-1	1.009546E+0	1.010745E+0	9.965424E-1	9.572746E-1	1.001578E+0	1.013618E+0	1.009822E+0	9.794650E-1	1.007803E+0	1.027663E+0	9.803445E-1	1.029049E+0	9.752716E-1	1.021559E+0	1.016777E+0	1.036981E+0	1.020786E+0	1.038092E+0	1.001175E+0	9.787489E-1	9.918624E-1	9.723289E-1	1.011181E+0	9.739171E-1	1.004617E+0	9.642101E-1	1.002823E+0	9.913125E-1	9.856400E-1	9.919030E-1	1.004507E+0	9.575976E-1	9.827718E-1	1.019133E+0	9.995888E-1	9.602167E-1	9.869496E-1	1.020445E+0	9.936704E-1	1.010521E+0	1.011449E+0	9.989588E-1	9.863400E-1	9.981287E-1	9.609143E-1	1.011667E+0	9.947626E-1	9.964968E-1	1.023943E+0	1.004993E+0	9.784403E-1	1.001799E+0	1.014767E+0	9.682353E-1	9.765390E-1	1.001400E+0	9.845195E-1	9.714721E-1	1.016866E+0	9.759334E-1	1.024584E+0	1.010658E+0	9.963235E-1	1.011818E+0	1.008952E+0	9.698488E-1	9.988176E-1	1.021148E+0	9.792405E-1	9.889638E-1	1.019042E+0	1.022624E+0	9.981726E-1	1.005420E+0	1.000439E+0	9.825567E-1	1.000674E+0	9.964137E-1	1.012755E+0	1.000159E+0	9.793121E-1	1.005096E+0	1.004696E+0	1.013104E+0	9.932403E-1	1.018051E+0	9.788457E-1	1.008020E+0	1.031321E+0	9.683722E-1	1.001862E+0	1.016483E+0	9.589998E-1	9.740304E-1	9.749702E-1	1.003233E+0	9.776334E-1	9.721027E-1	9.935368E-1	9.628931E-1	1.002631E+0	1.008454E+0	9.977483E-1	9.894512E-1	1.023942E+0	9.923420E-1	1.024594E+0	1.007146E+0	9.869021E-1	9.895306E-1	1.017824E+0	9.891230E-1	1.005201E+0	1.030289E+0	1.035741E+0	9.682936E-1	1.001467E+0	9.535569E-1	9.994449E-1	1.007778E+0	9.774388E-1	1.014071E+0	1.003048E+0	9.678493E-1	9.943419E-1	1.006218E+0	1.019263E+0	1.024742E+0	9.891528E-1	9.798202E-1	1.036475E+0	9.858514E-1	1.007203E+0	9.927113E-1	1.004777E+0	1.008398E+0	1.015389E+0	1.075196E+0	9.834529E-1	1.003798E+0	9.804687E-1	9.648520E-1	1.012870E+0	1.004765E+0	9.795933E-1	9.854761E-1	1.018546E+0	9.770592E-1	1.042073E+0	1.012288E+0	1.009184E+0	1.000904E+0	1.000115E+0	1.012744E+0	9.787450E-1	1.041604E+0	1.010003E+0	1.008945E+0	9.860411E-1	9.954212E-1	1.008108E+0	1.054362E+0	9.922382E-1	9.297507E-1
2.985020E+2	1.046268E+0	1.030274E+0	1.033089E+0	1.043264E+0	1.110903E+0	1.063566E+0	1.054739E+0	1.043720E+0	1.062266E+0	1.036862E+0	1.025902E+0	1.093035E+0	1.022513E+0	1.024188E+0	1.026494E+0	1.052219E+0	1.031156E+0	1.020639E+0	1.063446E+0	1.055014E+0	1.078385E+0	1.050923E+0	1.050149E+0	1.035025E+0	1.028597E+0	1.054309E+0	1.010378E+0	1.054702E+0	1.043971E+0	1.058719E+0	1.066805E+0	1.050598E+0	1.013786E+0	1.087743E+0	1.027376E+0	1.083637E+0	1.061801E+0	1.056032E+0	1.030228E+0	1.070418E+0	1.057087E+0	1.046801E+0	1.065477E+0	1.067601E+0	1.037907E+0	1.041921E+0	1.062813E+0	1.078824E+0	1.044478E+0	1.060375E+0	1.040699E+0	1.039081E+0	1.036799E+0	1.019423E+0	1.025556E+0	1.044544E+0	1.007927E+0	1.053998E+0	1.079405E+0	1.027144E+0	1.040124E+0	1.052732E+0	1.056650E+0	1.056683E+0	1.082915E+0	1.053515E+0	1.064788E+0	1.084630E+0	1.012594E+0	1.027120E+0	1.047195E+0	1.045328E+0	1.050853E+0	1.030109E+0	1.046993E+0	1.029458E+0	1.031728E+0	1.051347E+0	1.035908E+0	1.044439E+0	1.072066E+0	1.062215E+0	1.025303E+0	1.065627E+0	1.038535E+0	1.061628E+0	1.071437E+0	1.091829E+0	1.053526E+0	1.055535E+0	1.079492E+0	1.054897E+0	1.033344E+0	1.041025E+0	1.035917E+0	1.051131E+0	1.074681E+0	1.042577E+0	1.047743E+0	1.063788E+0	1.037875E+0	1.074142E+0	1.047743E+0	1.047744E+0	1.062393E+0	1.062447E+0	1.045941E+0	1.032499E+0	1.042149E+0	1.036803E+0	1.031557E+0	1.057816E+0	1.032654E+0	1.019818E+0	1.101097E+0	1.077251E+0	1.026954E+0	1.049901E+0	1.067933E+0	1.009998E+0	1.062947E+0	1.006513E+0	1.020440E+0	1.089811E+0	1.041534E+0	1.064568E+0	9.949399E-1	1.017281E+0	1.115108E+0	1.055976E+0	1.096449E+0	1.037823E+0	1.064105E+0	1.055803E+0	1.049754E+0	1.038512E+0	1.043743E+0	1.063029E+0	1.038817E+0	1.013275E+0	1.076357E+0	1.046186E+0	1.045841E+0	1.035683E+0	1.042901E+0	1.020886E+0	1.052727E+0	1.067565E+0	1.020785E+0	1.078390E+0	1.072596E+0	1.036477E+0	1.011166E+0	1.064397E+0	1.010337E+0	1.050904E+0	1.026683E+0	1.019549E+0	1.018713E+0	1.045558E+0	1.062028E+0	1.041565E+0	1.058775E+0	1.048027E+0	1.060950E+0	1.050781E+0	1.040188E+0	1.007793E+0	1.017152E+0	1.032504E+0	1.033430E+0	1.086665E+0
2.990020E+2	1.072016E+0	1.036308E+0	1.041862E+0	1.008639E+0	1.050189E+0	1.056686E+0	1.074372E+0	1.062618E+0	1.042489E+0	1.038869E+0	1.041542E+0	1.027892E+0	1.059813E+0	1.067872E+0	1.053201E+0	1.080134E+0	1.061535E+0	1.067524E+0	1.043630E+0	1.058117E+0	1.033085E+0	1.036342E+0	1.046020E+0	1.010197E+0	1.070877E+0	1.043697E+0	1.075211E+0	1.071652E+0	1.000923E+0	1.080772E+0	1.012154E+0	1.065889E+0	1.046033E+0	1.046606E+0	1.053994E+0	1.028151E+0	1.048532E+0	1.058988E+0	1.073532E+0	1.078192E+0	1.030250E+0	1.033971E+0	1.056238E+0	1.056557E+0	1.085272E+0	1.094060E+0	1.013066E+0	1.020933E+0	1.026824E+0	1.017285E+0	1.021125E+0	1.051200E+0	1.059881E+0	1.033244E+0	1.035971E+0	1.047627E+0	1.095527E+0	1.043482E+0	1.047738E+0	1.050075E+0	1.037660E+0	1.034553E+0	1.054238E+0	1.027654E+0	1.023960E+0	1.056958E+0	1.032179E+0	1.074985E+0	1.036062E+0	1.065838E+0	1.041632E+0	1.032577E+0	1.035510E+0	1.058293E+0	1.029853E+0	1.065699E+0	1.032313E+0	1.050953E+0	1.067809E+0	1.074492E+0	1.083709E+0	1.019989E+0	1.053359E+0	1.064142E+0	1.055041E+0	1.091294E+0	1.040749E+0	1.073762E+0	1.029918E+0	1.053497E+0	1.037073E+0	1.077104E+0	1.045721E+0	1.023805E+0	1.053497E+0	1.000467E+0	1.030224E+0	1.052464E+0	1.049388E+0	1.014291E+0	1.103672E+0	1.056068E+0	1.046552E+0	1.028913E+0	1.021900E+0	1.027894E+0	1.076542E+0	1.020710E+0	1.059842E+0	1.063607E+0	1.063205E+0	1.059389E+0	1.051301E+0	1.067364E+0	1.006777E+0	1.040110E+0	1.074702E+0	1.045327E+0	1.036706E+0	1.076350E+0	1.052507E+0	1.034263E+0	1.024832E+0	1.013895E+0	9.884826E-1	1.061587E+0	1.058852E+0	1.059055E+0	1.052655E+0	1.041848E+0	1.026735E+0	1.072477E+0	1.000458E+0	1.031135E+0	1.050785E+0	1.002115E+0	1.064058E+0	1.022918E+0	1.003125E+0	1.061983E+0	1.038388E+0	1.076719E+0	1.038294E+0	1.076327E+0	1.056424E+0	1.028237E+0	1.076229E+0	1.049635E+0	1.062594E+0	1.058822E+0	1.027778E+0	1.052635E+0	1.099088E+0	1.030493E+0	1.047377E+0	1.013043E+0	1.049673E+0	1.007553E+0	1.027256E+0	1.059926E+0	1.032572E+0	1.048974E+0	1.038582E+0	1.041908E+0	1.019928E+0	1.048742E+0	1.064969E+0	1.038416E+0	1.041382E+0	1.030143E+0	1.041627E+0	1.022036E+0
2.995060E+2	1.001043E+0	1.019329E+0	1.025274E+0	1.021361E+0	9.768572E-1	9.716363E-1	1.001484E+0	9.619578E-1	9.726758E-1	9.660045E-1	9.838340E-1	1.026655E+0	9.996171E-1	9.633555E-1	9.671038E-1	1.017281E+0	9.549266E-1	9.651707E-1	9.493515E-1	9.474795E-1	1.019467E+0	9.643877E-1	9.714163E-1	9.792632E-1	9.525786E-1	9.534515E-1	1.023250E+0	9.926359E-1	9.589117E-1	9.489144E-1	9.706830E-1	9.538607E-1	9.598151E-1	1.004452E+0	9.920642E-1	9.632442E-1	1.004464E+0	9.955393E-1	9.937327E-1	9.921619E-1	9.949701E-1	1.010383E+0	9.842558E-1	9.924613E-1	9.699838E-1	9.740631E-1	9.791256E-1	9.615391E-1	9.621760E-1	1.019512E+0	1.029848E+0	9.867907E-1	9.965047E-1	9.928187E-1	1.003626E+0	1.000273E+0	9.622711E-1	9.950463E-1	1.003795E+0	1.016962E+0	9.772697E-1	9.840916E-1	9.799782E-1	9.853591E-1	9.621874E-1	1.010882E+0	9.580248E-1	9.449790E-1	9.820450E-1	9.794634E-1	9.705848E-1	9.477530E-1	9.644466E-1	9.850768E-1	9.858509E-1	9.545249E-1	9.957853E-1	9.898775E-1	9.783506E-1	9.672298E-1	9.568573E-1	9.706112E-1	9.697136E-1	9.564581E-1	9.892522E-1	9.599413E-1	9.475481E-1	9.626376E-1	9.957111E-1	9.848654E-1	9.762263E-1	9.680182E-1	1.008302E+0	9.581234E-1	1.003913E+0	9.642493E-1	9.780810E-1	9.641432E-1	9.678448E-1	9.552790E-1	9.984008E-1	9.657711E-1	9.580072E-1	9.615657E-1	9.897088E-1	9.377867E-1	9.628997E-1	1.021417E+0	9.881717E-1	9.536811E-1	9.646907E-1	9.873732E-1	9.821511E-1	9.892586E-1	9.678514E-1	9.758830E-1	9.787528E-1	9.733396E-1	9.531757E-1	9.957883E-1	9.442718E-1	1.005769E+0	9.807058E-1	9.966370E-1	9.819011E-1	9.871865E-1	9.767447E-1	1.004015E+0	9.997345E-1	9.903396E-1	9.885367E-1	1.007985E+0	9.860203E-1	9.573617E-1	1.002123E+0	9.858765E-1	1.000978E+0	9.853757E-1	9.702052E-1	9.818957E-1	9.494881E-1	9.582222E-1	1.008662E+0	9.965439E-1	1.002842E+0	1.000750E+0	1.009749E+0	9.718849E-1	9.981569E-1	9.445774E-1	1.004196E+0	9.849521E-1	9.862979E-1	9.831580E-1	1.003116E+0	9.987937E-1	9.882913E-1	1.012918E+0	1.047624E+0	9.522666E-1	9.937922E-1	9.939603E-1	9.723807E-1	9.863445E-1	9.864639E-1	9.535156E-1	9.556772E-1	9.539080E-1	9.363505E-1	9.583998E-1	1.002143E+0	1.011927E+0
3.000040E+2	9.711659E-1	1.006983E+0	9.784085E-1	9.754067E-1	9.619505E-1	9.652828E-1	1.009681E+0	1.009554E+0	9.568559E-1	9.761168E-1	1.014967E+0	9.894936E-1	9.821701E-1	9.884810E-1	1.004292E+0	9.499555E-1	1.009649E+0	9.818345E-1	1.006259E+0	9.648252E-1	9.669944E-1	9.758419E-1	9.493282E-1	1.008315E+0	9.856961E-1	9.706039E-1	9.686660E-1	9.821816E-1	1.014202E+0	9.804042E-1	1.014715E+0	9.996155E-1	9.921709E-1	9.983921E-1	9.996619E-1	9.885354E-1	9.767264E-1	9.806975E-1	9.786162E-1	9.751558E-1	9.845607E-1	9.842882E-1	9.714583E-1	1.000722E+0	9.568629E-1	9.829998E-1	1.012464E+0	9.879889E-1	9.856907E-1	9.748371E-1	9.907693E-1	1.001264E+0	9.982887E-1	9.779992E-1	1.012469E+0	9.921753E-1	9.706591E-1	9.647426E-1	9.838163E-1	9.624742E-1	9.792580E-1	9.824773E-1	9.745289E-1	1.001542E+0	9.963908E-1	9.640251E-1	1.020202E+0	9.835794E-1	9.961062E-1	9.789772E-1	1.006164E+0	1.005116E+0	1.025846E+0	1.027000E+0	9.556999E-1	9.700732E-1	9.944135E-1	9.884437E-1	9.845755E-1	9.693875E-1	9.685613E-1	9.797266E-1	1.021131E+0	1.003166E+0	9.687987E-1	9.527720E-1	1.010242E+0	9.605574E-1	9.706984E-1	9.958298E-1	9.925385E-1	9.491684E-1	9.655713E-1	9.899427E-1	1.018708E+0	1.011023E+0	9.826513E-1	1.002275E+0	1.009121E+0	1.004505E+0	9.345878E-1	9.972916E-1	1.014070E+0	9.999935E-1	1.005061E+0	1.039687E+0	9.875687E-1	1.018217E+0	9.732878E-1	1.000314E+0	1.015137E+0	1.002278E+0	9.776986E-1	1.021341E+0	9.971873E-1	9.361271E-1	1.012334E+0	9.805013E-1	9.863656E-1	9.886540E-1	9.927886E-1	1.009942E+0	1.025008E+0	9.780308E-1	1.011450E+0	9.745734E-1	1.018245E+0	9.635966E-1	9.595471E-1	9.847076E-1	9.812759E-1	9.950731E-1	9.962812E-1	1.013465E+0	9.799755E-1	1.029387E+0	9.662785E-1	1.003420E+0	9.764589E-1	1.004311E+0	9.857804E-1	9.770757E-1	9.840520E-1	9.853535E-1	9.748882E-1	9.775509E-1	9.267875E-1	9.650908E-1	9.778302E-1	1.015130E+0	9.764024E-1	9.883291E-1	9.987079E-1	1.005989E+0	1.006724E+0	1.005246E+0	9.311335E-1	1.019475E+0	9.767363E-1	1.023937E+0	9.920166E-1	9.664772E-1	9.977313E-1	9.659278E-1	9.916784E-1	9.880161E-1	1.012935E+0	1.026238E+0	1.019489E+0	1.007312E+0	1.034094E+0	1.013620E+0
